nm,Intensity
528.65,1836.5
528.734,1836.15
528.819,1836.85
528.903,1835.15
528.987,1835.7
529.071,1836.9
529.155,1835.45
529.239,1835.55
529.324,1836.35
529.408,1837.0
529.492,1836.35
529.576,1836.2
529.66,1836.1
529.745,1836.2
529.829,1836.3
529.913,1836.25
529.997,1835.8
530.081,1836.75
530.165,1835.3
530.25,1837.7
530.334,1836.95
530.418,1836.8
530.502,1836.4
530.586,1836.45
530.67,1835.85
530.754,1836.15
530.839,1835.85
530.923,1835.1
531.007,1837.0
531.091,1838.1
531.175,1837.15
531.259,1838.45
531.344,1838.2
531.428,1840.95
531.512,1840.95
531.596,1845.65
531.68,1861.35
531.764,1922.9
531.848,2143.25
531.933,2545.05
532.017,3044.45
532.101,3291.8
532.185,2800.3
532.269,2255.8
532.353,1907.9
532.437,1844.35
532.521,1838.45
532.606,1837.1
532.69,1839.0
532.774,1837.0
532.858,1837.2
532.942,1837.55
533.026,1838.85
533.11,1836.9
533.194,1836.55
533.279,1837.4
533.363,1837.65
533.447,1840.85
533.531,1846.55
533.615,1867.85
533.699,1896.8
533.783,1938.5
533.867,1971.7
533.951,2002.4
534.036,2011.6
534.12,2024.05
534.204,2005.6
534.288,2008.1
534.372,2004.85
534.456,2017.25
534.54,2027.75
534.624,2044.95
534.708,2065.2
534.792,2088.5
534.877,2109.25
534.961,2127.0
535.045,2137.35
535.129,2127.8
535.213,2106.0
535.297,2075.4
535.381,2040.9
535.465,2003.0
535.549,1988.8
535.633,1965.1
535.717,1953.45
535.801,1945.3
535.886,1937.3
535.97,1930.2
536.054,1926.55
536.138,1926.45
536.222,1928.2
536.306,1925.55
536.39,1925.5
536.474,1929.25
536.558,1938.55
536.642,1954.65
536.726,1967.0
536.81,1987.45
536.894,1999.5
536.978,2003.25
537.062,2013.95
537.146,1998.85
537.231,1991.2
537.315,1971.35
537.399,1957.15
537.483,1946.3
537.567,1933.15
537.651,1933.1
537.735,1932.5
537.819,1927.85
537.903,1922.5
537.987,1918.8
538.071,1912.3
538.155,1915.05
538.239,1921.05
538.323,1917.95
538.407,1915.2
538.491,1917.9
538.575,1918.3
538.659,1917.1
538.743,1916.2
538.827,1919.05
538.911,1926.9
538.995,1935.8
539.079,1937.9
539.163,1946.1
539.247,1947.5
539.331,1943.7
539.415,1941.25
539.499,1937.9
539.583,1931.4
539.667,1921.95
539.751,1918.25
539.835,1913.05
539.919,1907.05
540.003,1905.6
540.087,1902.25
540.171,1897.55
540.255,1900.1
540.339,1896.0
540.423,1897.2
540.507,1898.85
540.591,1898.15
540.675,1901.45
540.759,1898.15
540.843,1906.2
540.927,1906.15
541.011,1911.75
541.095,1921.0
541.179,1925.65
541.263,1935.85
541.347,1934.6
541.431,1931.75
541.515,1927.0
541.599,1918.15
541.683,1909.35
541.767,1901.05
541.851,1903.1
541.935,1892.85
542.019,1894.1
542.103,1892.45
542.187,1893.55
542.271,1892.3
542.355,1893.15
542.439,1889.05
542.523,1889.65
542.607,1894.75
542.691,1892.0
542.775,1894.2
542.859,1897.1
542.943,1899.65
543.027,1905.25
543.111,1912.55
543.195,1925.15
543.279,1945.7
543.363,1982.8
543.446,2043.25
543.53,2109.05
543.614,2146.65
543.698,2133.6
543.782,2082.95
543.866,2019.25
543.95,1971.35
544.034,1943.0
544.118,1932.0
544.202,1922.35
544.286,1917.85
544.37,1911.9
544.454,1905.5
544.538,1909.6
544.622,1905.65
544.706,1907.1
544.789,1910.5
544.873,1915.2
544.957,1923.75
545.041,1936.5
545.125,1950.55
545.209,1963.7
545.293,1977.65
545.377,1978.6
545.461,1963.8
545.545,1940.8
545.629,1933.9
545.713,1917.95
545.796,1906.1
545.88,1898.6
545.964,1895.85
546.048,1896.1
546.132,1893.6
546.216,1892.2
546.3,1891.6
546.384,1896.55
546.468,1891.35
546.552,1893.7
546.635,1891.4
546.719,1895.65
546.803,1897.1
546.887,1898.45
546.971,1905.85
547.055,1910.95
547.139,1917.25
547.223,1930.85
547.306,1937.2
547.39,1950.85
547.474,1956.7
547.558,1949.7
547.642,1936.9
547.726,1928.7
547.81,1916.2
547.894,1913.35
547.977,1904.25
548.061,1902.6
548.145,1894.2
548.229,1893.5
548.313,1892.1
548.397,1895.6
548.481,1891.5
548.564,1888.4
548.648,1887.2
548.732,1886.25
548.816,1887.4
548.9,1884.0
548.984,1884.7
549.068,1882.65
549.151,1883.75
549.235,1880.7
549.319,1882.0
549.403,1881.25
549.487,1880.15
549.571,1877.95
549.655,1880.3
549.738,1882.45
549.822,1880.35
549.906,1880.1
549.99,1882.75
550.074,1882.3
550.158,1878.55
550.241,1875.7
550.325,1877.7
550.409,1881.4
550.493,1880.5
550.577,1879.1
550.66,1878.75
550.744,1880.75
550.828,1878.85
550.912,1880.8
550.996,1881.15
551.08,1877.55
551.163,1878.2
551.247,1879.5
551.331,1881.2
551.415,1881.75
551.499,1882.4
551.582,1881.3
551.666,1883.3
551.75,1878.85
551.834,1883.9
551.918,1882.3
552.001,1879.85
552.085,1881.5
552.169,1879.45
552.253,1882.55
552.337,1882.05
552.42,1882.7
552.504,1880.45
552.588,1877.8
552.672,1882.55
552.755,1879.6
552.839,1880.8
552.923,1879.6
553.007,1885.5
553.091,1882.45
553.174,1882.2
553.258,1880.35
553.342,1881.7
553.426,1881.0
553.509,1883.65
553.593,1882.65
553.677,1885.75
553.761,1881.95
553.844,1883.05
553.928,1881.75
554.012,1886.15
554.096,1889.4
554.179,1892.7
554.263,1886.55
554.347,1888.75
554.431,1891.7
554.514,1896.3
554.598,1896.1
554.682,1899.05
554.766,1899.45
554.849,1901.5
554.933,1900.05
555.017,1903.7
555.101,1902.95
555.184,1907.0
555.268,1915.55
555.352,1919.45
555.436,1925.2
555.519,1943.9
555.603,1963.15
555.687,1999.15
555.771,2076.3
555.854,2180.6
555.938,2300.05
556.022,2396.95
556.105,2399.15
556.189,2293.05
556.273,2154.55
556.357,2066.0
556.44,2027.5
556.524,2026.85
556.608,2038.15
556.691,2063.9
556.775,2095.55
556.859,2159.95
556.943,2223.15
557.026,2265.45
557.11,2259.5
557.194,2199.7
557.277,2104.35
557.361,2029.95
557.445,1989.75
557.528,1974.3
557.612,1951.9
557.696,1946.7
557.779,1941.1
557.863,1936.85
557.947,1932.9
558.031,1920.7
558.114,1922.5
558.198,1920.4
558.282,1924.05
558.365,1918.4
558.449,1920.85
558.533,1924.4
558.616,1931.4
558.7,1942.7
558.784,1958.1
558.867,1965.5
558.951,1961.1
559.035,1945.8
559.118,1931.9
559.202,1923.5
559.286,1913.5
559.369,1916.6
559.453,1913.2
559.537,1910.2
559.62,1913.25
559.704,1918.15
559.788,1924.75
559.871,1939.5
559.955,1949.1
560.038,1971.7
560.122,1988.15
560.206,1988.75
560.289,1980.05
560.373,1965.6
560.457,1949.1
560.54,1949.8
560.624,1944.8
560.708,1950.65
560.791,1962.3
560.875,1988.7
560.958,2031.25
561.042,2092.2
561.126,2152.35
561.209,2169.25
561.293,2143.75
561.377,2062.3
561.46,2007.65
561.544,1968.05
561.627,1964.8
561.711,1975.45
561.795,2002.0
561.878,2031.9
561.962,2052.0
562.045,2048.05
562.129,2023.55
562.213,1990.65
562.296,1972.5
562.38,1953.6
562.463,1946.95
562.547,1946.65
562.631,1953.4
562.714,1950.4
562.798,1957.95
562.881,1971.6
562.965,1990.45
563.049,2016.85
563.132,2038.1
563.216,2055.45
563.299,2046.65
563.383,2039.7
563.467,2010.45
563.55,1992.05
563.634,1973.45
563.717,1958.9
563.801,1947.0
563.884,1936.85
563.968,1932.65
564.052,1936.35
564.135,1931.95
564.219,1929.0
564.302,1928.85
564.386,1925.15
564.469,1921.4
564.553,1925.75
564.636,1930.4
564.72,1933.5
564.804,1931.4
564.887,1927.95
564.971,1939.65
565.054,1949.4
565.138,1946.2
565.221,1956.45
565.305,1962.35
565.388,1960.3
565.472,1959.2
565.556,1951.75
565.639,1944.1
565.723,1934.25
565.806,1938.1
565.89,1931.7
565.973,1940.55
566.057,1933.65
566.14,1940.4
566.224,1943.9
566.307,1952.5
566.391,1958.75
566.474,1986.2
566.558,2034.45
566.641,2099.7
566.725,2177.8
566.808,2237.3
566.892,2273.25
566.975,2279.0
567.059,2275.0
567.142,2243.8
567.226,2229.25
567.309,2244.2
567.393,2240.15
567.476,2201.15
567.56,2134.45
567.643,2055.65
567.727,2002.0
567.81,1978.15
567.894,1962.5
567.977,1950.85
568.061,1949.65
568.144,1948.0
568.228,1951.5
568.311,1945.35
568.395,1957.7
568.478,1964.05
568.562,1967.4
568.645,1984.95
568.729,2000.9
568.812,2027.7
568.896,2053.1
568.979,2088.9
569.063,2092.45
569.146,2072.1
569.23,2040.55
569.313,2011.4
569.396,1984.65
569.48,1977.35
569.563,1967.1
569.647,1953.3
569.73,1956.75
569.814,1953.1
569.897,1964.25
569.981,1973.3
570.064,1985.3
570.148,1986.45
570.231,2000.95
570.314,1978.75
570.398,1974.0
570.481,1968.85
570.565,1962.0
570.648,1952.75
570.732,1953.6
570.815,1955.05
570.898,1955.35
570.982,1956.8
571.065,1963.25
571.149,1960.25
571.232,1972.75
571.316,1986.9
571.399,1998.65
571.482,2001.95
571.566,2011.9
571.649,2012.5
571.733,2018.6
571.816,2022.0
571.9,2008.4
571.983,2008.05
572.066,2016.85
572.15,2028.5
572.233,2058.25
572.317,2109.85
572.4,2190.8
572.483,2269.65
572.567,2348.05
572.65,2387.9
572.734,2365.7
572.817,2279.3
572.9,2195.05
572.984,2108.4
573.067,2053.85
573.15,2038.4
573.234,2030.85
573.317,2041.95
573.401,2070.05
573.484,2110.95
573.567,2145.55
573.651,2156.1
573.734,2128.25
573.818,2099.25
573.901,2069.45
573.984,2042.2
574.068,2032.45
574.151,2022.55
574.234,1999.75
574.318,1996.15
574.401,1975.65
574.484,1961.2
574.568,1953.2
574.651,1945.9
574.734,1949.45
574.818,1945.45
574.901,1941.85
574.985,1947.35
575.068,1944.9
575.151,1938.9
575.235,1940.6
575.318,1948.1
575.401,1943.5
575.485,1950.0
575.568,1946.3
575.651,1956.75
575.735,1962.0
575.818,1992.65
575.901,2025.75
575.985,2066.7
576.068,2132.55
576.151,2176.4
576.235,2191.35
576.318,2185.55
576.401,2183.05
576.484,2204.9
576.568,2259.85
576.651,2338.55
576.734,2422.55
576.818,2543.05
576.901,2620.95
576.984,2564.5
577.068,2491.8
577.151,2355.8
577.234,2245.5
577.318,2134.3
577.401,2057.55
577.484,2020.1
577.567,2001.8
577.651,1988.4
577.734,1974.1
577.817,1973.25
577.901,1963.8
577.984,1965.3
578.067,1953.85
578.15,1962.25
578.234,1952.1
578.317,1952.65
578.4,1949.45
578.484,1950.6
578.567,1947.25
578.65,1955.2
578.733,1945.65
578.817,1953.6
578.9,1948.05
578.983,1947.9
579.066,1947.65
579.15,1954.6
579.233,1954.95
579.316,1956.05
579.399,1960.25
579.483,1953.2
579.566,1961.5
579.649,1961.85
579.732,1961.85
579.816,1956.05
579.899,1967.85
579.982,1959.55
580.065,1964.3
580.149,1960.5
580.232,1965.5
580.315,1967.0
580.398,1962.2
580.482,1972.05
580.565,1966.5
580.648,1973.65
580.731,1971.0
580.815,1965.6
580.898,1976.85
580.981,1978.4
581.064,1981.25
581.147,1975.7
581.231,1977.15
581.314,1978.2
581.397,1981.1
581.48,1984.8
581.563,1992.9
581.647,1987.85
581.73,1989.65
581.813,1994.15
581.896,1996.7
581.979,1994.05
582.063,1994.45
582.146,1999.85
582.229,2006.05
582.312,2006.3
582.395,2005.3
582.479,2005.9
582.562,2004.45
582.645,2009.85
582.728,2008.7
582.811,2009.15
582.895,2017.9
582.978,2020.35
583.061,2020.1
583.144,2017.4
583.227,2030.0
583.31,2025.55
583.394,2030.8
583.477,2030.4
583.56,2027.05
583.643,2030.05
583.726,2042.2
583.809,2036.15
583.893,2038.25
583.976,2043.15
584.059,2038.5
584.142,2044.65
584.225,2056.55
584.308,2053.6
584.391,2063.6
584.475,2056.6
584.558,2047.7
584.641,2055.2
584.724,2065.3
584.807,2074.65
584.89,2066.7
584.973,2064.8
585.057,2063.45
585.14,2060.05
585.223,2068.9
585.306,2066.7
585.389,2073.0
585.472,2076.3
585.555,2074.45
585.638,2075.05
585.722,2072.7
585.805,2066.95
585.888,2071.25
585.971,2080.35
586.054,2084.3
586.137,2075.55
586.22,2079.85
586.303,2084.55
586.386,2075.5
586.47,2090.4
586.553,2087.1
586.636,2081.75
586.719,2087.5
586.802,2093.95
586.885,2093.6
586.968,2085.15
587.051,2083.5
587.134,2096.6
587.217,2100.7
587.3,2105.4
587.384,2091.15
587.467,2092.1
587.55,2103.15
587.633,2108.25
587.716,2100.15
587.799,2101.2
587.882,2104.95
587.965,2102.5
588.048,2108.4
588.131,2103.7
588.214,2093.25
588.297,2099.95
588.38,2098.05
588.463,2109.6
588.546,2104.1
588.63,2127.4
588.713,2109.15
588.796,2111.0
588.879,2106.75
588.962,2107.8
589.045,2110.7
589.128,2102.4
589.211,2106.15
589.294,2108.1
589.377,2108.2
589.46,2113.25
589.543,2113.4
589.626,2115.4
589.709,2114.4
589.792,2100.2
589.875,2105.8
589.958,2118.25
590.041,2115.35
590.124,2111.5
590.207,2114.25
590.29,2112.2
590.373,2105.4
590.456,2107.8
590.539,2112.4
590.622,2126.75
590.705,2122.0
590.788,2115.35
590.871,2108.7
590.954,2113.45
591.037,2130.3
591.12,2127.7
591.203,2124.9
591.286,2128.95
591.369,2129.2
591.452,2113.3
591.535,2120.35
591.618,2127.8
591.701,2129.9
591.784,2138.7
591.867,2133.5
591.95,2130.4
592.033,2121.65
592.116,2117.45
592.199,2135.25
592.282,2125.3
592.365,2129.0
592.448,2121.85
592.531,2133.65
592.614,2128.4
592.697,2118.75
592.78,2136.1
592.863,2128.35
592.946,2131.2
593.029,2132.15
593.112,2123.75
593.195,2130.1
593.278,2128.95
593.361,2123.7
593.443,2125.15
593.526,2126.15
593.609,2129.3
593.692,2127.95
593.775,2125.3
593.858,2127.5
593.941,2129.3
594.024,2137.5
594.107,2132.15
594.19,2132.15
594.273,2118.75
594.356,2132.95
594.439,2136.85
594.522,2132.05
594.604,2134.9
594.687,2136.25
594.77,2139.55
594.853,2139.1
594.936,2134.25
595.019,2136.85
595.102,2135.85
595.185,2133.95
595.268,2129.35
595.351,2137.55
595.434,2138.85
595.516,2143.55
595.599,2139.45
595.682,2138.25
595.765,2132.5
595.848,2135.8
595.931,2137.15
596.014,2143.5
596.097,2142.4
596.18,2148.1
596.262,2141.45
596.345,2140.5
596.428,2137.85
596.511,2138.85
596.594,2154.65
596.677,2148.05
596.76,2152.4
596.843,2140.0
596.925,2144.45
597.008,2139.2
597.091,2136.45
597.174,2140.85
597.257,2146.6
597.34,2140.9
597.423,2136.3
597.505,2141.2
597.588,2140.75
597.671,2131.55
597.754,2126.25
597.837,2135.8
597.92,2147.7
598.002,2145.1
598.085,2136.15
598.168,2132.85
598.251,2129.8
598.334,2133.9
598.417,2140.7
598.499,2136.2
598.582,2130.1
598.665,2123.25
598.748,2123.6
598.831,2124.05
598.914,2132.35
598.996,2128.45
599.079,2142.05
599.162,2128.85
599.245,2124.6
599.328,2129.5
599.41,2127.8
599.493,2125.05
599.576,2130.2
599.659,2138.45
599.742,2127.6
599.824,2131.6
599.907,2131.35
599.99,2128.6
600.073,2121.95
600.156,2119.65
600.238,2124.7
600.321,2110.1
600.404,2119.55
600.487,2118.25
600.57,2118.95
600.652,2115.6
600.735,2123.5
600.818,2115.75
600.901,2116.15
600.983,2108.05
601.066,2106.65
601.149,2108.45
601.232,2106.5
601.314,2099.65
601.397,2120.15
601.48,2108.4
601.563,2112.8
601.645,2114.8
601.728,2111.7
601.811,2102.0
601.894,2106.95
601.976,2107.85
602.059,2101.1
602.142,2096.85
602.225,2100.55
602.307,2104.75
602.39,2104.4
602.473,2105.05
602.556,2097.6
602.638,2087.7
602.721,2093.1
602.804,2093.9
602.887,2086.3
602.969,2093.05
603.052,2091.25
603.135,2090.15
603.217,2096.25
603.3,2093.8
603.383,2090.55
603.466,2095.95
603.548,2089.65
603.631,2083.85
603.714,2093.9
603.796,2093.05
603.879,2091.8
603.962,2081.55
604.045,2084.35
604.127,2093.35
604.21,2081.3
604.293,2082.3
604.375,2083.6
604.458,2081.0
604.541,2080.6
604.623,2082.95
604.706,2082.15
604.789,2079.2
604.871,2081.4
604.954,2080.4
605.037,2072.95
605.119,2065.0
605.202,2078.7
605.285,2077.15
605.367,2079.9
605.45,2074.75
605.533,2065.15
605.615,2063.55
605.698,2075.95
605.781,2076.3
605.863,2071.95
605.946,2066.45
606.029,2066.05
606.111,2068.45
606.194,2064.35
606.277,2064.75
606.359,2056.9
606.442,2067.35
606.524,2067.55
606.607,2071.0
606.69,2069.8
606.772,2063.65
606.855,2058.1
606.938,2053.35
607.02,2065.5
607.103,2062.25
607.185,2057.55
607.268,2054.0
607.351,2060.75
607.433,2049.45
607.516,2058.7
607.599,2060.55
607.681,2046.1
607.764,2052.6
607.846,2052.6
607.929,2056.5
608.012,2051.15
608.094,2049.15
608.177,2042.8
608.259,2046.2
608.342,2050.3
608.425,2046.85
608.507,2045.7
608.59,2039.65
608.672,2039.95
608.755,2043.9
608.837,2037.5
608.92,2034.75
609.003,2040.2
609.085,2037.05
609.168,2037.05
609.25,2038.0
609.333,2040.3
609.415,2033.9
609.498,2033.15
609.581,2031.5
609.663,2031.55
609.746,2027.45
609.828,2028.0
609.911,2034.95
609.993,2040.15
610.076,2034.25
610.158,2028.25
610.241,2027.75
610.324,2025.15
610.406,2029.5
610.489,2022.25
610.571,2031.45
610.654,2021.7
610.736,2018.2
610.819,2019.65
610.901,2017.0
610.984,2020.65
611.066,2024.75
611.149,2019.85
611.231,2020.25
611.314,2027.0
611.396,2020.1
611.479,2022.3
611.561,2021.9
611.644,2015.3
611.727,2016.35
611.809,2014.2
611.892,2015.6
611.974,2010.5
612.057,2005.55
612.139,2010.2
612.222,2009.2
612.304,2011.45
612.386,2009.85
612.469,2012.0
612.551,2012.5
612.634,2006.85
612.716,2003.55
612.799,2011.3
612.881,2001.15
612.964,2003.75
613.046,2004.95
613.129,1999.75
613.211,1998.2
613.294,1996.75
613.376,1999.45
613.459,1997.05
613.541,1995.2
613.624,1995.2
613.706,1995.05
613.789,1998.45
613.871,1997.55
613.953,1998.0
614.036,1992.75
614.118,2001.2
614.201,1997.4
614.283,1999.45
614.366,2004.8
614.448,1995.85
614.531,1997.65
614.613,1999.0
614.695,1994.95
614.778,1997.3
614.86,1996.6
614.943,1991.8
615.025,2004.45
615.108,2001.55
615.19,1992.35
615.272,1991.55
615.355,1995.25
615.437,1996.65
615.52,1994.5
615.602,1995.5
615.684,1997.05
615.767,1999.15
615.849,1991.55
615.932,1991.05
616.014,1995.65
616.097,1993.15
616.179,1987.4
616.261,1995.75
616.344,1990.3
616.426,1996.5
616.508,1998.35
616.591,1997.5
616.673,1991.7
616.756,1997.5
616.838,1998.1
616.92,2002.2
617.003,1999.1
617.085,2002.65
617.168,1994.4
617.25,1996.35
617.332,2000.0
617.415,2007.0
617.497,1997.35
617.579,1998.8
617.662,1998.7
617.744,1999.5
617.826,1996.15
617.909,2002.15
617.991,2005.65
618.073,2001.95
618.156,2000.9
618.238,2001.5
618.32,1999.8
618.403,1998.8
618.485,1995.65
618.567,1997.4
618.65,2000.45
618.732,1992.75
618.814,1992.85
618.897,1991.45
618.979,1997.55
619.061,2006.25
619.144,2008.55
619.226,2016.2
619.308,2011.15
619.391,2019.3
619.473,2028.55
619.555,2031.5
619.638,2028.35
619.72,2040.55
619.802,2028.2
619.885,2027.55
619.967,2022.5
620.049,2029.4
620.131,2020.5
620.214,2017.85
620.296,2012.85
620.378,2009.8
620.461,2015.85
620.543,2021.5
620.625,2022.35
620.707,2018.35
620.79,2025.0
620.872,2013.2
620.954,2017.65
621.037,2021.45
621.119,2020.65
621.201,2019.7
621.283,2033.65
621.366,2035.9
621.448,2048.6
621.53,2059.15
621.612,2066.95
621.695,2082.45
621.777,2098.75
621.859,2104.95
621.941,2114.6
622.024,2139.95
622.106,2164.05
622.188,2176.2
622.27,2198.9
622.353,2179.9
622.435,2180.3
622.517,2140.7
622.599,2111.05
622.682,2102.4
622.764,2096.8
622.846,2083.4
622.928,2074.3
623.01,2061.95
623.093,2050.3
623.175,2040.0
623.257,2035.0
623.339,2028.65
623.422,2032.2
623.504,2025.6
623.586,2020.6
623.668,2017.75
623.75,2008.1
623.833,1999.45
623.915,1993.8
623.997,1996.25
624.079,1994.25
624.161,1993.35
624.244,2000.3
624.326,1992.8
624.408,1997.85
624.49,1990.9
624.572,1990.55
624.654,1998.75
624.737,2003.45
624.819,2003.3
624.901,2000.1
624.983,2008.25
625.065,2007.95
625.147,2009.3
625.23,2011.8
625.312,2011.4
625.394,2012.7
625.476,2023.6
625.558,2026.75
625.64,2039.9
625.723,2048.95
625.805,2055.1
625.887,2071.8
625.969,2076.65
626.051,2089.55
626.133,2111.05
626.215,2150.45
626.298,2188.55
626.38,2271.05
626.462,2407.6
626.544,2561.3
626.626,2737.85
626.708,2940.1
626.79,3072.45
626.872,3146.1
626.955,3141.1
627.037,3013.7
627.119,2892.5
627.201,2732.55
627.283,2600.0
627.365,2532.45
627.447,2562.25
627.529,2609.45
627.611,2771.6
627.693,3004.15
627.776,3323.7
627.858,3614.65
627.94,3798.6
628.022,3911.35
628.104,4026.75
628.186,4119.5
628.268,4227.05
628.35,4314.7
628.432,4509.7
628.514,4641.25
628.596,4657.1
628.678,4693.45
628.761,4600.55
628.843,4451.1
628.925,4266.6
629.007,4123.35
629.089,3988.9
629.171,3917.55
629.253,4012.9
629.335,4062.35
629.417,4058.0
629.499,4012.5
629.581,3994.75
629.663,3853.6
629.745,3670.15
629.827,3521.9
629.909,3442.3
629.991,3444.95
630.073,3467.7
630.155,3438.25
630.237,3437.45
630.319,3412.55
630.401,3341.15
630.483,3186.75
630.565,3071.55
630.647,2933.0
630.73,2798.75
630.812,2745.2
630.894,2749.6
630.976,2803.6
631.058,2910.8
631.14,3073.2
631.222,3270.4
631.304,3454.65
631.386,3513.65
631.468,3540.15
631.55,3521.2
631.632,3504.8
631.714,3453.25
631.796,3340.55
631.877,3212.45
631.959,3028.4
632.041,2921.7
632.123,2760.6
632.205,2614.35
632.287,2495.2
632.369,2393.75
632.451,2305.95
632.533,2244.15
632.615,2194.05
632.697,2157.65
632.779,2132.95
632.861,2115.1
632.943,2102.8
633.025,2078.8
633.107,2069.1
633.189,2054.65
633.271,2060.5
633.353,2044.45
633.435,2038.95
633.517,2032.85
633.599,2028.8
633.681,2024.5
633.763,2017.25
633.844,2014.85
633.926,2007.8
634.008,1999.0
634.09,2000.5
634.172,2005.15
634.254,2004.65
634.336,1995.85
634.418,1997.8
634.5,1992.2
634.582,1992.25
634.664,1986.65
634.746,1991.05
634.827,1986.9
634.909,1983.75
634.991,1988.75
635.073,1988.75
635.155,1989.65
635.237,1984.15
635.319,1983.9
635.401,1985.15
635.483,1977.5
635.564,1978.25
635.646,1986.3
635.728,1979.05
635.81,1982.5
635.892,1977.95
635.974,1982.3
636.056,1978.25
636.138,1984.1
636.219,1985.0
636.301,1974.9
636.383,1977.3
636.465,1980.8
636.547,1973.6
636.629,1972.05
636.711,1973.15
636.792,1983.3
636.874,1983.0
636.956,1982.65
637.038,1979.95
637.12,1979.3
637.202,1979.8
637.283,1980.55
637.365,1981.95
637.447,1975.65
637.529,1976.15
637.611,1978.15
637.693,1980.6
637.774,1978.5
637.856,1983.1
637.938,1979.35
638.02,1979.75
638.102,1976.45
638.184,1983.7
638.265,1982.85
638.347,1981.25
638.429,1978.25
638.511,1985.1
638.593,1986.85
638.674,1982.55
638.756,1983.3
638.838,1987.55
638.92,1985.15
639.002,1992.85
639.083,1986.05
639.165,1986.35
639.247,1983.8
639.329,1975.95
639.41,1977.8
639.492,1980.35
639.574,1979.85
639.656,1984.5
639.737,1981.0
639.819,1981.7
639.901,1975.9
639.983,1979.05
640.065,1981.0
640.146,1981.55
640.228,1982.15
640.31,1979.6
640.392,1981.6
640.473,1983.5
640.555,1983.85
640.637,1983.25
640.719,1977.2
640.8,1974.9
640.882,1983.15
640.964,1982.4
641.045,1981.3
641.127,1981.75
641.209,1982.2
641.291,1981.55
641.372,1981.3
641.454,1985.95
641.536,1984.15
641.618,1981.2
641.699,1974.8
641.781,1976.1
641.863,1970.35
641.944,1977.25
642.026,1975.95
642.108,1977.95
642.189,1973.6
642.271,1966.0
642.353,1976.95
642.435,1977.05
642.516,1971.25
642.598,1967.85
642.68,1968.05
642.761,1962.95
642.843,1967.6
642.925,1962.55
643.006,1960.15
643.088,1966.75
643.17,1965.5
643.251,1961.45
643.333,1961.25
643.415,1960.95
643.496,1961.25
643.578,1959.3
643.66,1955.3
643.741,1960.25
643.823,1966.2
643.905,1966.15
643.986,1954.4
644.068,1959.5
644.149,1958.6
644.231,1958.95
644.313,1958.75
644.394,1959.55
644.476,1956.75
644.558,1952.3
644.639,1955.6
644.721,1959.8
644.803,1958.1
644.884,1956.5
644.966,1953.05
645.047,1956.55
645.129,1960.85
645.211,1954.0
645.292,1957.3
645.374,1951.2
645.455,1958.75
645.537,1955.45
645.619,1957.4
645.7,1953.8
645.782,1952.25
645.863,1952.2
645.945,1953.9
646.027,1949.75
646.108,1947.3
646.19,1952.85
646.271,1957.3
646.353,1957.95
646.435,1946.95
646.516,1949.65
646.598,1946.2
646.679,1951.75
646.761,1952.8
646.842,1948.9
646.924,1951.2
647.005,1950.9
647.087,1949.35
647.169,1943.55
647.25,1948.85
647.332,1948.75
647.413,1948.95
647.495,1949.8
647.576,1948.3
647.658,1955.0
647.739,1949.75
647.821,1942.8
647.902,1948.9
647.984,1953.0
648.066,1948.7
648.147,1948.8
648.229,1941.55
648.31,1945.7
648.392,1947.0
648.473,1943.45
648.555,1940.8
648.636,1939.45
648.718,1943.5
648.799,1945.95
648.881,1942.15
648.962,1943.9
649.044,1942.05
649.125,1941.1
649.207,1943.9
649.288,1941.9
649.37,1945.0
649.451,1949.7
649.533,1940.15
649.614,1941.6
649.696,1933.8
649.777,1942.7
649.859,1946.0
649.94,1944.1
650.022,1941.3
650.103,1934.1
650.184,1935.8
650.266,1942.95
650.347,1943.15
650.429,1945.15
650.51,1938.15
650.592,1943.5
650.673,1941.5
650.755,1936.25
650.836,1934.95
650.918,1938.65
650.999,1937.8
651.08,1934.35
651.162,1935.45
651.243,1940.55
651.325,1933.8
651.406,1936.8
651.488,1937.7
651.569,1932.75
651.651,1932.0
651.732,1933.7
651.813,1931.75
651.895,1928.15
651.976,1932.7
652.058,1934.65
652.139,1932.95
652.22,1929.35
652.302,1931.85
652.383,1932.7
652.465,1934.65
652.546,1930.25
652.627,1928.15
652.709,1931.2
652.79,1927.5
652.872,1927.55
652.953,1924.3
653.034,1929.45
653.116,1931.7
653.197,1925.5
653.278,1926.15
653.36,1930.05
653.441,1929.5
653.523,1923.7
653.604,1922.25
653.685,1920.7
653.767,1925.05
653.848,1924.55
653.929,1925.25
654.011,1920.7
654.092,1920.8
654.173,1921.1
654.255,1917.55
654.336,1915.5
654.418,1917.25
654.499,1919.95
654.58,1919.2
654.662,1917.0
654.743,1920.75
654.824,1917.0
654.906,1915.5
654.987,1916.65
655.068,1910.65
655.149,1914.8
655.231,1917.05
655.312,1918.2
655.393,1916.7
655.475,1914.15
655.556,1915.5
655.637,1911.6
655.719,1912.7
655.8,1914.65
655.881,1913.3
655.963,1917.4
656.044,1910.15
656.125,1916.8
656.206,1908.65
656.288,1905.35
656.369,1906.2
656.45,1908.7
656.532,1908.25
656.613,1913.45
656.694,1910.65
656.775,1914.35
656.857,1909.9
656.938,1907.5
657.019,1907.8
657.1,1909.5
657.182,1904.45
657.263,1902.6
657.344,1909.05
657.425,1905.55
657.507,1904.6
657.588,1906.05
657.669,1910.0
657.75,1907.8
657.832,1908.6
657.913,1904.75
657.994,1907.45
658.075,1903.15
658.157,1906.5
658.238,1905.5
658.319,1905.65
658.4,1900.45
658.482,1903.4
658.563,1902.35
658.644,1906.4
658.725,1904.05
658.806,1900.95
658.888,1903.85
658.969,1898.85
659.05,1903.75
659.131,1901.55
659.212,1901.2
659.294,1898.0
659.375,1896.5
659.456,1897.8
659.537,1905.0
659.618,1903.3
659.7,1899.15
659.781,1895.15
659.862,1898.85
659.943,1894.95
660.024,1894.25
660.105,1893.8
660.187,1893.5
660.268,1893.9
660.349,1899.1
660.43,1895.15
660.511,1896.85
660.592,1893.45
660.674,1900.0
660.755,1895.05
660.836,1892.6
660.917,1890.8
660.998,1890.9
661.079,1893.7
