cm-1,A
4000.0,0.0011
3999.0,0.0011
3998.0,0.0012
3997.0,0.0012
3996.0,0.0012
3995.0,0.0011
3994.0,0.0011
3993.0,0.0011
3992.0,0.0011
3991.0,0.0011
3990.0,0.0011
3989.0,0.0011
3988.0,0.0011
3987.0,0.0011
3986.0,0.0011
3985.0,0.0011
3984.0,0.0011
3983.0,0.0012
3982.0,0.0012
3981.0,0.0012
3980.0,0.0012
3979.0,0.0011
3978.0,0.001
3977.0,0.0009
3976.0,0.0009
3975.0,0.0009
3974.0,0.001
3973.0,0.001
3972.0,0.0011
3971.0,0.0011
3970.0,0.0011
3969.0,0.001
3968.0,0.001
3967.0,0.001
3966.0,0.001
3965.0,0.001
3964.0,0.001
3963.0,0.001
3962.0,0.001
3961.0,0.001
3960.0,0.001
3959.0,0.0009
3958.0,0.0009
3957.0,0.0009
3956.0,0.0009
3955.0,0.0009
3954.0,0.001
3953.0,0.001
3952.0,0.0011
3951.0,0.0012
3950.0,0.0012
3949.0,0.0013
3948.0,0.0012
3947.0,0.0012
3946.0,0.0011
3945.0,0.0011
3944.0,0.0011
3943.0,0.0011
3942.0,0.0011
3941.0,0.001
3940.0,0.001
3939.0,0.0011
3938.0,0.0011
3937.0,0.0011
3936.0,0.0011
3935.0,0.0011
3934.0,0.0011
3933.0,0.0012
3932.0,0.0013
3931.0,0.0013
3930.0,0.0013
3929.0,0.0013
3928.0,0.0013
3927.0,0.0013
3926.0,0.0014
3925.0,0.0014
3924.0,0.0013
3923.0,0.0012
3922.0,0.0012
3921.0,0.0011
3920.0,0.0012
3919.0,0.0012
3918.0,0.0013
3917.0,0.0014
3916.0,0.0013
3915.0,0.0012
3914.0,0.0011
3913.0,0.001
3912.0,0.0009
3911.0,0.0009
3910.0,0.0009
3909.0,0.0009
3908.0,0.0009
3907.0,0.0009
3906.0,0.001
3905.0,0.0011
3904.0,0.0011
3903.0,0.0012
3902.0,0.0011
3901.0,0.0011
3900.0,0.001
3899.0,0.001
3898.0,0.001
3897.0,0.001
3896.0,0.001
3895.0,0.0009
3894.0,0.0009
3893.0,0.0008
3892.0,0.0007
3891.0,0.0007
3890.0,0.0008
3889.0,0.0008
3888.0,0.001
3887.0,0.0011
3886.0,0.0012
3885.0,0.0012
3884.0,0.0012
3883.0,0.0012
3882.0,0.0013
3881.0,0.0013
3880.0,0.0013
3879.0,0.0012
3878.0,0.0011
3877.0,0.0011
3876.0,0.0011
3875.0,0.0009
3874.0,0.0008
3873.0,0.0008
3872.0,0.001
3871.0,0.0012
3870.0,0.0013
3869.0,0.0013
3868.0,0.0012
3867.0,0.0013
3866.0,0.0014
3865.0,0.0014
3864.0,0.0014
3863.0,0.0013
3862.0,0.0012
3861.0,0.0012
3860.0,0.0011
3859.0,0.0011
3858.0,0.001
3857.0,0.0009
3856.0,0.0009
3855.0,0.0009
3854.0,0.0009
3853.0,0.0009
3852.0,0.0008
3851.0,0.0009
3850.0,0.0009
3849.0,0.001
3848.0,0.001
3847.0,0.001
3846.0,0.0011
3845.0,0.0011
3844.0,0.0012
3843.0,0.0013
3842.0,0.0013
3841.0,0.0014
3840.0,0.0014
3839.0,0.0013
3838.0,0.0013
3837.0,0.0013
3836.0,0.0013
3835.0,0.0013
3834.0,0.0013
3833.0,0.0013
3832.0,0.0013
3831.0,0.0013
3830.0,0.0013
3829.0,0.0014
3828.0,0.0014
3827.0,0.0013
3826.0,0.0011
3825.0,0.001
3824.0,0.001
3823.0,0.0012
3822.0,0.0014
3821.0,0.0014
3820.0,0.0013
3819.0,0.0012
3818.0,0.0012
3817.0,0.0013
3816.0,0.0012
3815.0,0.001
3814.0,0.001
3813.0,0.0009
3812.0,0.0009
3811.0,0.0009
3810.0,0.0008
3809.0,0.0009
3808.0,0.001
3807.0,0.001
3806.0,0.001
3805.0,0.001
3804.0,0.001
3803.0,0.001
3802.0,0.0009
3801.0,0.0008
3800.0,0.0008
3799.0,0.0009
3798.0,0.001
3797.0,0.0011
3796.0,0.001
3795.0,0.001
3794.0,0.0009
3793.0,0.001
3792.0,0.001
3791.0,0.001
3790.0,0.0011
3789.0,0.001
3788.0,0.001
3787.0,0.001
3786.0,0.0011
3785.0,0.0012
3784.0,0.0012
3783.0,0.0012
3782.0,0.0012
3781.0,0.0012
3780.0,0.0012
3779.0,0.0011
3778.0,0.001
3777.0,0.0009
3776.0,0.0009
3775.0,0.0009
3774.0,0.0009
3773.0,0.0009
3772.0,0.0009
3771.0,0.0009
3770.0,0.001
3769.0,0.001
3768.0,0.001
3767.0,0.001
3766.0,0.0009
3765.0,0.0009
3764.0,0.0009
3763.0,0.0009
3762.0,0.001
3761.0,0.001
3760.0,0.001
3759.0,0.001
3758.0,0.0009
3757.0,0.0008
3756.0,0.0007
3755.0,0.0007
3754.0,0.0007
3753.0,0.0006
3752.0,0.0005
3751.0,0.0003
3750.0,0.0003
3749.0,0.0002
3748.0,0.0002
3747.0,0.0003
3746.0,0.0004
3745.0,0.0004
3744.0,0.0004
3743.0,0.0005
3742.0,0.0007
3741.0,0.0009
3740.0,0.0009
3739.0,0.0009
3738.0,0.001
3737.0,0.0011
3736.0,0.0012
3735.0,0.0012
3734.0,0.0011
3733.0,0.001
3732.0,0.0008
3731.0,0.0006
3730.0,0.0006
3729.0,0.0006
3728.0,0.0006
3727.0,0.0006
3726.0,0.0007
3725.0,0.0007
3724.0,0.0008
3723.0,0.0009
3722.0,0.0009
3721.0,0.0009
3720.0,0.0009
3719.0,0.0009
3718.0,0.0008
3717.0,0.0008
3716.0,0.0007
3715.0,0.0007
3714.0,0.0006
3713.0,0.0004
3712.0,0.0003
3711.0,0.0003
3710.0,0.0004
3709.0,0.0005
3708.0,0.0006
3707.0,0.0006
3706.0,0.0006
3705.0,0.0007
3704.0,0.0008
3703.0,0.001
3702.0,0.001
3701.0,0.0009
3700.0,0.0009
3699.0,0.0009
3698.0,0.001
3697.0,0.001
3696.0,0.001
3695.0,0.001
3694.0,0.001
3693.0,0.001
3692.0,0.0011
3691.0,0.0012
3690.0,0.0013
3689.0,0.0012
3688.0,0.001
3687.0,0.0009
3686.0,0.0008
3685.0,0.0009
3684.0,0.0009
3683.0,0.001
3682.0,0.001
3681.0,0.001
3680.0,0.001
3679.0,0.0009
3678.0,0.0009
3677.0,0.0008
3676.0,0.0008
3675.0,0.0009
3674.0,0.0009
3673.0,0.0011
3672.0,0.0013
3671.0,0.0014
3670.0,0.0014
3669.0,0.0013
3668.0,0.0013
3667.0,0.0013
3666.0,0.0013
3665.0,0.0013
3664.0,0.0014
3663.0,0.0014
3662.0,0.0013
3661.0,0.0012
3660.0,0.0012
3659.0,0.0012
3658.0,0.0013
3657.0,0.0014
3656.0,0.0015
3655.0,0.0015
3654.0,0.0016
3653.0,0.0016
3652.0,0.0017
3651.0,0.0016
3650.0,0.0016
3649.0,0.0015
3648.0,0.0016
3647.0,0.0017
3646.0,0.0018
3645.0,0.0019
3644.0,0.002
3643.0,0.002
3642.0,0.002
3641.0,0.002
3640.0,0.002
3639.0,0.0019
3638.0,0.0019
3637.0,0.002
3636.0,0.0021
3635.0,0.0022
3634.0,0.0022
3633.0,0.0022
3632.0,0.0021
3631.0,0.0021
3630.0,0.0022
3629.0,0.0022
3628.0,0.0022
3627.0,0.0021
3626.0,0.0022
3625.0,0.0022
3624.0,0.0023
3623.0,0.0023
3622.0,0.0023
3621.0,0.0023
3620.0,0.0024
3619.0,0.0024
3618.0,0.0025
3617.0,0.0026
3616.0,0.0028
3615.0,0.003
3614.0,0.0031
3613.0,0.0032
3612.0,0.0031
3611.0,0.003
3610.0,0.0029
3609.0,0.0029
3608.0,0.0031
3607.0,0.0032
3606.0,0.0034
3605.0,0.0035
3604.0,0.0037
3603.0,0.0039
3602.0,0.004
3601.0,0.0039
3600.0,0.0038
3599.0,0.0037
3598.0,0.0036
3597.0,0.0036
3596.0,0.0036
3595.0,0.0036
3594.0,0.0037
3593.0,0.0038
3592.0,0.0039
3591.0,0.004
3590.0,0.0041
3589.0,0.0042
3588.0,0.0043
3587.0,0.0044
3586.0,0.0045
3585.0,0.0045
3584.0,0.0045
3583.0,0.0045
3582.0,0.0046
3581.0,0.0046
3580.0,0.0047
3579.0,0.0048
3578.0,0.0048
3577.0,0.0049
3576.0,0.0049
3575.0,0.0049
3574.0,0.0049
3573.0,0.005
3572.0,0.005
3571.0,0.005
3570.0,0.0052
3569.0,0.0053
3568.0,0.0054
3567.0,0.0054
3566.0,0.0054
3565.0,0.0054
3564.0,0.0054
3563.0,0.0054
3562.0,0.0055
3561.0,0.0055
3560.0,0.0055
3559.0,0.0056
3558.0,0.0057
3557.0,0.0058
3556.0,0.006
3555.0,0.0061
3554.0,0.0062
3553.0,0.0062
3552.0,0.0061
3551.0,0.0062
3550.0,0.0063
3549.0,0.0064
3548.0,0.0065
3547.0,0.0067
3546.0,0.0068
3545.0,0.0068
3544.0,0.0068
3543.0,0.0068
3542.0,0.0068
3541.0,0.0069
3540.0,0.0069
3539.0,0.007
3538.0,0.0071
3537.0,0.0072
3536.0,0.0072
3535.0,0.0072
3534.0,0.0072
3533.0,0.0071
3532.0,0.0071
3531.0,0.0071
3530.0,0.0072
3529.0,0.0074
3528.0,0.0075
3527.0,0.0076
3526.0,0.0075
3525.0,0.0075
3524.0,0.0075
3523.0,0.0075
3522.0,0.0076
3521.0,0.0076
3520.0,0.0076
3519.0,0.0076
3518.0,0.0076
3517.0,0.0077
3516.0,0.0077
3515.0,0.0078
3514.0,0.0078
3513.0,0.0079
3512.0,0.0079
3511.0,0.008
3510.0,0.008
3509.0,0.0081
3508.0,0.0083
3507.0,0.0085
3506.0,0.0086
3505.0,0.0087
3504.0,0.0087
3503.0,0.0087
3502.0,0.0089
3501.0,0.0089
3500.0,0.009
3499.0,0.0089
3498.0,0.0089
3497.0,0.0089
3496.0,0.0089
3495.0,0.0091
3494.0,0.0092
3493.0,0.0094
3492.0,0.0094
3491.0,0.0094
3490.0,0.0094
3489.0,0.0094
3488.0,0.0095
3487.0,0.0096
3486.0,0.0097
3485.0,0.0098
3484.0,0.0099
3483.0,0.01
3482.0,0.0101
3481.0,0.0102
3480.0,0.0103
3479.0,0.0103
3478.0,0.0104
3477.0,0.0104
3476.0,0.0105
3475.0,0.0105
3474.0,0.0105
3473.0,0.0104
3472.0,0.0104
3471.0,0.0104
3470.0,0.0105
3469.0,0.0106
3468.0,0.0107
3467.0,0.0109
3466.0,0.0111
3465.0,0.0112
3464.0,0.0113
3463.0,0.0113
3462.0,0.0114
3461.0,0.0115
3460.0,0.0117
3459.0,0.0118
3458.0,0.0119
3457.0,0.0119
3456.0,0.0119
3455.0,0.0119
3454.0,0.0119
3453.0,0.012
3452.0,0.0123
3451.0,0.0125
3450.0,0.0127
3449.0,0.0128
3448.0,0.0129
3447.0,0.0129
3446.0,0.013
3445.0,0.0131
3444.0,0.0131
3443.0,0.0131
3442.0,0.0131
3441.0,0.0132
3440.0,0.0133
3439.0,0.0135
3438.0,0.0137
3437.0,0.0139
3436.0,0.014
3435.0,0.0141
3434.0,0.0141
3433.0,0.0142
3432.0,0.0142
3431.0,0.0144
3430.0,0.0145
3429.0,0.0146
3428.0,0.0147
3427.0,0.0148
3426.0,0.015
3425.0,0.0151
3424.0,0.0152
3423.0,0.0153
3422.0,0.0155
3421.0,0.0156
3420.0,0.0158
3419.0,0.0159
3418.0,0.016
3417.0,0.016
3416.0,0.0161
3415.0,0.0161
3414.0,0.0162
3413.0,0.0164
3412.0,0.0166
3411.0,0.0169
3410.0,0.0171
3409.0,0.0172
3408.0,0.0173
3407.0,0.0174
3406.0,0.0175
3405.0,0.0176
3404.0,0.0177
3403.0,0.0178
3402.0,0.0179
3401.0,0.018
3400.0,0.0181
3399.0,0.0183
3398.0,0.0185
3397.0,0.0186
3396.0,0.0186
3395.0,0.0187
3394.0,0.0188
3393.0,0.0189
3392.0,0.019
3391.0,0.0191
3390.0,0.0192
3389.0,0.0193
3388.0,0.0193
3387.0,0.0194
3386.0,0.0195
3385.0,0.0195
3384.0,0.0196
3383.0,0.0196
3382.0,0.0197
3381.0,0.0199
3380.0,0.02
3379.0,0.0201
3378.0,0.0202
3377.0,0.0203
3376.0,0.0204
3375.0,0.0205
3374.0,0.0205
3373.0,0.0205
3372.0,0.0204
3371.0,0.0203
3370.0,0.0204
3369.0,0.0204
3368.0,0.0205
3367.0,0.0206
3366.0,0.0206
3365.0,0.0206
3364.0,0.0205
3363.0,0.0203
3362.0,0.0202
3361.0,0.0203
3360.0,0.0204
3359.0,0.0205
3358.0,0.0205
3357.0,0.0205
3356.0,0.0204
3355.0,0.0204
3354.0,0.0204
3353.0,0.0205
3352.0,0.0206
3351.0,0.0205
3350.0,0.0204
3349.0,0.0202
3348.0,0.02
3347.0,0.02
3346.0,0.0201
3345.0,0.0202
3344.0,0.0201
3343.0,0.02
3342.0,0.0198
3341.0,0.0197
3340.0,0.0197
3339.0,0.0198
3338.0,0.02
3337.0,0.0202
3336.0,0.0203
3335.0,0.0203
3334.0,0.0203
3333.0,0.0202
3332.0,0.02
3331.0,0.02
3330.0,0.02
3329.0,0.02
3328.0,0.02
3327.0,0.0199
3326.0,0.0197
3325.0,0.0196
3324.0,0.0195
3323.0,0.0195
3322.0,0.0195
3321.0,0.0195
3320.0,0.0195
3319.0,0.0195
3318.0,0.0195
3317.0,0.0195
3316.0,0.0195
3315.0,0.0194
3314.0,0.0195
3313.0,0.0195
3312.0,0.0194
3311.0,0.0193
3310.0,0.0192
3309.0,0.0191
3308.0,0.019
3307.0,0.019
3306.0,0.019
3305.0,0.019
3304.0,0.0189
3303.0,0.0188
3302.0,0.0187
3301.0,0.0187
3300.0,0.0187
3299.0,0.0188
3298.0,0.0188
3297.0,0.0188
3296.0,0.0187
3295.0,0.0186
3294.0,0.0186
3293.0,0.0186
3292.0,0.0186
3291.0,0.0185
3290.0,0.0185
3289.0,0.0185
3288.0,0.0184
3287.0,0.0184
3286.0,0.0183
3285.0,0.0182
3284.0,0.0181
3283.0,0.0181
3282.0,0.0181
3281.0,0.0181
3280.0,0.0182
3279.0,0.0183
3278.0,0.0182
3277.0,0.0181
3276.0,0.0179
3275.0,0.0179
3274.0,0.0179
3273.0,0.018
3272.0,0.018
3271.0,0.018
3270.0,0.0179
3269.0,0.0179
3268.0,0.0178
3267.0,0.0178
3266.0,0.0177
3265.0,0.0178
3264.0,0.0178
3263.0,0.0178
3262.0,0.0179
3261.0,0.0179
3260.0,0.018
3259.0,0.018
3258.0,0.018
3257.0,0.018
3256.0,0.0181
3255.0,0.0181
3254.0,0.018
3253.0,0.0179
3252.0,0.0178
3251.0,0.0178
3250.0,0.0178
3249.0,0.0179
3248.0,0.018
3247.0,0.018
3246.0,0.0182
3245.0,0.0183
3244.0,0.0184
3243.0,0.0184
3242.0,0.0183
3241.0,0.0182
3240.0,0.0181
3239.0,0.018
3238.0,0.0179
3237.0,0.0179
3236.0,0.0179
3235.0,0.0178
3234.0,0.0178
3233.0,0.0178
3232.0,0.0177
3231.0,0.0178
3230.0,0.0178
3229.0,0.0178
3228.0,0.0177
3227.0,0.0177
3226.0,0.0176
3225.0,0.0175
3224.0,0.0174
3223.0,0.0174
3222.0,0.0173
3221.0,0.0172
3220.0,0.017
3219.0,0.0169
3218.0,0.0168
3217.0,0.0167
3216.0,0.0167
3215.0,0.0167
3214.0,0.0168
3213.0,0.0167
3212.0,0.0167
3211.0,0.0166
3210.0,0.0165
3209.0,0.0164
3208.0,0.0163
3207.0,0.0163
3206.0,0.0162
3205.0,0.0162
3204.0,0.016
3203.0,0.0159
3202.0,0.0158
3201.0,0.0157
3200.0,0.0157
3199.0,0.0157
3198.0,0.0157
3197.0,0.0156
3196.0,0.0154
3195.0,0.0153
3194.0,0.0152
3193.0,0.0153
3192.0,0.0153
3191.0,0.0153
3190.0,0.0154
3189.0,0.0153
3188.0,0.0152
3187.0,0.0151
3186.0,0.015
3185.0,0.0149
3184.0,0.0147
3183.0,0.0146
3182.0,0.0146
3181.0,0.0146
3180.0,0.0146
3179.0,0.0146
3178.0,0.0145
3177.0,0.0144
3176.0,0.0143
3175.0,0.0141
3174.0,0.014
3173.0,0.0139
3172.0,0.0139
3171.0,0.0139
3170.0,0.0139
3169.0,0.0138
3168.0,0.0137
3167.0,0.0136
3166.0,0.0135
3165.0,0.0134
3164.0,0.0134
3163.0,0.0134
3162.0,0.0134
3161.0,0.0134
3160.0,0.0133
3159.0,0.0133
3158.0,0.0132
3157.0,0.0131
3156.0,0.013
3155.0,0.013
3154.0,0.0129
3153.0,0.0129
3152.0,0.0128
3151.0,0.0128
3150.0,0.0128
3149.0,0.0127
3148.0,0.0127
3147.0,0.0126
3146.0,0.0125
3145.0,0.0125
3144.0,0.0124
3143.0,0.0124
3142.0,0.0123
3141.0,0.0122
3140.0,0.0121
3139.0,0.012
3138.0,0.012
3137.0,0.0119
3136.0,0.0119
3135.0,0.0119
3134.0,0.0119
3133.0,0.0119
3132.0,0.0119
3131.0,0.0119
3130.0,0.0118
3129.0,0.0118
3128.0,0.0119
3127.0,0.0119
3126.0,0.0119
3125.0,0.0118
3124.0,0.0117
3123.0,0.0116
3122.0,0.0115
3121.0,0.0114
3120.0,0.0114
3119.0,0.0114
3118.0,0.0113
3117.0,0.0112
3116.0,0.011
3115.0,0.011
3114.0,0.0109
3113.0,0.0109
3112.0,0.0109
3111.0,0.0109
3110.0,0.0109
3109.0,0.0109
3108.0,0.0108
3107.0,0.0107
3106.0,0.0107
3105.0,0.0106
3104.0,0.0106
3103.0,0.0106
3102.0,0.0105
3101.0,0.0105
3100.0,0.0105
3099.0,0.0104
3098.0,0.0103
3097.0,0.0102
3096.0,0.0101
3095.0,0.0101
3094.0,0.0101
3093.0,0.0101
3092.0,0.01
3091.0,0.0099
3090.0,0.0099
3089.0,0.0099
3088.0,0.01
3087.0,0.01
3086.0,0.0101
3085.0,0.01
3084.0,0.01
3083.0,0.0099
3082.0,0.0098
3081.0,0.0098
3080.0,0.0098
3079.0,0.0098
3078.0,0.0098
3077.0,0.0098
3076.0,0.0097
3075.0,0.0097
3074.0,0.0096
3073.0,0.0096
3072.0,0.0095
3071.0,0.0094
3070.0,0.0093
3069.0,0.0093
3068.0,0.0093
3067.0,0.0094
3066.0,0.0094
3065.0,0.0094
3064.0,0.0093
3063.0,0.0093
3062.0,0.0092
3061.0,0.0092
3060.0,0.0091
3059.0,0.009
3058.0,0.009
3057.0,0.009
3056.0,0.0091
3055.0,0.0091
3054.0,0.0091
3053.0,0.0091
3052.0,0.0091
3051.0,0.0089
3050.0,0.0088
3049.0,0.0087
3048.0,0.0087
3047.0,0.0087
3046.0,0.0086
3045.0,0.0086
3044.0,0.0085
3043.0,0.0084
3042.0,0.0083
3041.0,0.0083
3040.0,0.0083
3039.0,0.0083
3038.0,0.0083
3037.0,0.0083
3036.0,0.0083
3035.0,0.0083
3034.0,0.0083
3033.0,0.0083
3032.0,0.0082
3031.0,0.0081
3030.0,0.0081
3029.0,0.0081
3028.0,0.0081
3027.0,0.0081
3026.0,0.0081
3025.0,0.008
3024.0,0.0079
3023.0,0.0078
3022.0,0.0078
3021.0,0.0078
3020.0,0.0079
3019.0,0.0079
3018.0,0.0079
3017.0,0.0079
3016.0,0.0079
3015.0,0.0079
3014.0,0.0079
3013.0,0.0078
3012.0,0.0078
3011.0,0.0079
3010.0,0.0078
3009.0,0.0078
3008.0,0.0077
3007.0,0.0077
3006.0,0.0077
3005.0,0.0077
3004.0,0.0078
3003.0,0.0078
3002.0,0.0079
3001.0,0.0078
3000.0,0.0078
2999.0,0.0077
2998.0,0.0076
2997.0,0.0076
2996.0,0.0076
2995.0,0.0076
2994.0,0.0076
2993.0,0.0076
2992.0,0.0075
2991.0,0.0075
2990.0,0.0076
2989.0,0.0076
2988.0,0.0078
2987.0,0.0079
2986.0,0.0079
2985.0,0.0079
2984.0,0.0078
2983.0,0.0077
2982.0,0.0077
2981.0,0.0077
2980.0,0.0077
2979.0,0.0078
2978.0,0.0078
2977.0,0.0079
2976.0,0.0079
2975.0,0.008
2974.0,0.0081
2973.0,0.0081
2972.0,0.008
2971.0,0.0079
2970.0,0.0079
2969.0,0.0079
2968.0,0.0079
2967.0,0.008
2966.0,0.008
2965.0,0.0081
2964.0,0.008
2963.0,0.008
2962.0,0.008
2961.0,0.008
2960.0,0.008
2959.0,0.008
2958.0,0.0081
2957.0,0.0081
2956.0,0.0081
2955.0,0.008
2954.0,0.0079
2953.0,0.0079
2952.0,0.0078
2951.0,0.0078
2950.0,0.0078
2949.0,0.0078
2948.0,0.0078
2947.0,0.0077
2946.0,0.0076
2945.0,0.0075
2944.0,0.0075
2943.0,0.0075
2942.0,0.0074
2941.0,0.0074
2940.0,0.0074
2939.0,0.0074
2938.0,0.0074
2937.0,0.0074
2936.0,0.0074
2935.0,0.0074
2934.0,0.0074
2933.0,0.0074
2932.0,0.0074
2931.0,0.0073
2930.0,0.0073
2929.0,0.0072
2928.0,0.0072
2927.0,0.0072
2926.0,0.0072
2925.0,0.0071
2924.0,0.0071
2923.0,0.007
2922.0,0.007
2921.0,0.007
2920.0,0.007
2919.0,0.007
2918.0,0.007
2917.0,0.007
2916.0,0.0069
2915.0,0.0069
2914.0,0.0069
2913.0,0.0069
2912.0,0.0068
2911.0,0.0067
2910.0,0.0067
2909.0,0.0066
2908.0,0.0066
2907.0,0.0067
2906.0,0.0067
2905.0,0.0068
2904.0,0.0067
2903.0,0.0067
2902.0,0.0066
2901.0,0.0066
2900.0,0.0065
2899.0,0.0065
2898.0,0.0065
2897.0,0.0065
2896.0,0.0066
2895.0,0.0066
2894.0,0.0066
2893.0,0.0065
2892.0,0.0065
2891.0,0.0065
2890.0,0.0065
2889.0,0.0066
2888.0,0.0066
2887.0,0.0065
2886.0,0.0065
2885.0,0.0064
2884.0,0.0063
2883.0,0.0063
2882.0,0.0063
2881.0,0.0062
2880.0,0.0062
2879.0,0.0063
2878.0,0.0063
2877.0,0.0064
2876.0,0.0064
2875.0,0.0064
2874.0,0.0063
2873.0,0.0063
2872.0,0.0062
2871.0,0.0062
2870.0,0.0063
2869.0,0.0063
2868.0,0.0063
2867.0,0.0063
2866.0,0.0063
2865.0,0.0063
2864.0,0.0063
2863.0,0.0062
2862.0,0.0062
2861.0,0.0061
2860.0,0.0061
2859.0,0.0062
2858.0,0.0062
2857.0,0.0062
2856.0,0.0062
2855.0,0.0062
2854.0,0.0062
2853.0,0.0061
2852.0,0.0061
2851.0,0.0061
2850.0,0.0061
2849.0,0.0061
2848.0,0.0061
2847.0,0.0061
2846.0,0.0061
2845.0,0.006
2844.0,0.0058
2843.0,0.0057
2842.0,0.0056
2841.0,0.0055
2840.0,0.0055
2839.0,0.0056
2838.0,0.0057
2837.0,0.0057
2836.0,0.0057
2835.0,0.0056
2834.0,0.0055
2833.0,0.0054
2832.0,0.0054
2831.0,0.0054
2830.0,0.0055
2829.0,0.0056
2828.0,0.0056
2827.0,0.0056
2826.0,0.0055
2825.0,0.0055
2824.0,0.0055
2823.0,0.0054
2822.0,0.0055
2821.0,0.0055
2820.0,0.0055
2819.0,0.0055
2818.0,0.0055
2817.0,0.0055
2816.0,0.0055
2815.0,0.0055
2814.0,0.0054
2813.0,0.0054
2812.0,0.0054
2811.0,0.0054
2810.0,0.0054
2809.0,0.0053
2808.0,0.0053
2807.0,0.0053
2806.0,0.0053
2805.0,0.0053
2804.0,0.0053
2803.0,0.0052
2802.0,0.0052
2801.0,0.0052
2800.0,0.0052
2799.0,0.0052
2798.0,0.0052
2797.0,0.0051
2796.0,0.0051
2795.0,0.005
2794.0,0.005
2793.0,0.0051
2792.0,0.0051
2791.0,0.0052
2790.0,0.0052
2789.0,0.0052
2788.0,0.0052
2787.0,0.0052
2786.0,0.0051
2785.0,0.0051
2784.0,0.005
2783.0,0.005
2782.0,0.005
2781.0,0.0051
2780.0,0.0052
2779.0,0.0053
2778.0,0.0053
2777.0,0.0052
2776.0,0.0052
2775.0,0.0051
2774.0,0.0051
2773.0,0.0051
2772.0,0.0051
2771.0,0.0051
2770.0,0.0051
2769.0,0.0051
2768.0,0.0051
2767.0,0.0051
2766.0,0.005
2765.0,0.005
2764.0,0.005
2763.0,0.005
2762.0,0.0051
2761.0,0.0051
2760.0,0.0051
2759.0,0.0051
2758.0,0.005
2757.0,0.005
2756.0,0.0049
2755.0,0.0049
2754.0,0.005
2753.0,0.005
2752.0,0.005
2751.0,0.005
2750.0,0.0049
2749.0,0.0049
2748.0,0.0049
2747.0,0.0049
2746.0,0.0049
2745.0,0.005
2744.0,0.0049
2743.0,0.0049
2742.0,0.0049
2741.0,0.0048
2740.0,0.0048
2739.0,0.0049
2738.0,0.0049
2737.0,0.0049
2736.0,0.0049
2735.0,0.0048
2734.0,0.0048
2733.0,0.0048
2732.0,0.0048
2731.0,0.0048
2730.0,0.0049
2729.0,0.0049
2728.0,0.0049
2727.0,0.0049
2726.0,0.0049
2725.0,0.0049
2724.0,0.0049
2723.0,0.0049
2722.0,0.0049
2721.0,0.0049
2720.0,0.0048
2719.0,0.0047
2718.0,0.0047
2717.0,0.0046
2716.0,0.0047
2715.0,0.0047
2714.0,0.0047
2713.0,0.0047
2712.0,0.0047
2711.0,0.0047
2710.0,0.0047
2709.0,0.0047
2708.0,0.0047
2707.0,0.0047
2706.0,0.0047
2705.0,0.0046
2704.0,0.0046
2703.0,0.0046
2702.0,0.0046
2701.0,0.0046
2700.0,0.0046
2699.0,0.0045
2698.0,0.0045
2697.0,0.0044
2696.0,0.0044
2695.0,0.0044
2694.0,0.0044
2693.0,0.0045
2692.0,0.0045
2691.0,0.0045
2690.0,0.0045
2689.0,0.0046
2688.0,0.0046
2687.0,0.0046
2686.0,0.0046
2685.0,0.0046
2684.0,0.0045
2683.0,0.0045
2682.0,0.0045
2681.0,0.0045
2680.0,0.0045
2679.0,0.0045
2678.0,0.0044
2677.0,0.0044
2676.0,0.0043
2675.0,0.0044
2674.0,0.0044
2673.0,0.0044
2672.0,0.0045
2671.0,0.0044
2670.0,0.0044
2669.0,0.0043
2668.0,0.0043
2667.0,0.0043
2666.0,0.0043
2665.0,0.0043
2664.0,0.0043
2663.0,0.0043
2662.0,0.0043
2661.0,0.0043
2660.0,0.0043
2659.0,0.0044
2658.0,0.0044
2657.0,0.0045
2656.0,0.0045
2655.0,0.0045
2654.0,0.0044
2653.0,0.0043
2652.0,0.0043
2651.0,0.0043
2650.0,0.0043
2649.0,0.0043
2648.0,0.0043
2647.0,0.0043
2646.0,0.0043
2645.0,0.0043
2644.0,0.0043
2643.0,0.0043
2642.0,0.0043
2641.0,0.0043
2640.0,0.0044
2639.0,0.0044
2638.0,0.0045
2637.0,0.0044
2636.0,0.0044
2635.0,0.0043
2634.0,0.0043
2633.0,0.0043
2632.0,0.0043
2631.0,0.0043
2630.0,0.0043
2629.0,0.0043
2628.0,0.0044
2627.0,0.0044
2626.0,0.0045
2625.0,0.0045
2624.0,0.0044
2623.0,0.0044
2622.0,0.0044
2621.0,0.0044
2620.0,0.0044
2619.0,0.0043
2618.0,0.0043
2617.0,0.0043
2616.0,0.0043
2615.0,0.0043
2614.0,0.0043
2613.0,0.0043
2612.0,0.0043
2611.0,0.0042
2610.0,0.0042
2609.0,0.0042
2608.0,0.0042
2607.0,0.0042
2606.0,0.0042
2605.0,0.0042
2604.0,0.0043
2603.0,0.0043
2602.0,0.0042
2601.0,0.0042
2600.0,0.0041
2599.0,0.0041
2598.0,0.0041
2597.0,0.0041
2596.0,0.0042
2595.0,0.0043
2594.0,0.0043
2593.0,0.0043
2592.0,0.0043
2591.0,0.0044
2590.0,0.0044
2589.0,0.0044
2588.0,0.0044
2587.0,0.0043
2586.0,0.0043
2585.0,0.0042
2584.0,0.0042
2583.0,0.0042
2582.0,0.0042
2581.0,0.0042
2580.0,0.0043
2579.0,0.0043
2578.0,0.0043
2577.0,0.0042
2576.0,0.0042
2575.0,0.0042
2574.0,0.0041
2573.0,0.0041
2572.0,0.0042
2571.0,0.0041
2570.0,0.0041
2569.0,0.0041
2568.0,0.0042
2567.0,0.0042
2566.0,0.0043
2565.0,0.0042
2564.0,0.0042
2563.0,0.0041
2562.0,0.004
2561.0,0.004
2560.0,0.0041
2559.0,0.0041
2558.0,0.0041
2557.0,0.0041
2556.0,0.0041
2555.0,0.0041
2554.0,0.0042
2553.0,0.0042
2552.0,0.0042
2551.0,0.0042
2550.0,0.0042
2549.0,0.0042
2548.0,0.0042
2547.0,0.0042
2546.0,0.0041
2545.0,0.0041
2544.0,0.0041
2543.0,0.0041
2542.0,0.0042
2541.0,0.0042
2540.0,0.0043
2539.0,0.0043
2538.0,0.0042
2537.0,0.0042
2536.0,0.0041
2535.0,0.0041
2534.0,0.0042
2533.0,0.0043
2532.0,0.0043
2531.0,0.0043
2530.0,0.0042
2529.0,0.0042
2528.0,0.0042
2527.0,0.0042
2526.0,0.0042
2525.0,0.0042
2524.0,0.0042
2523.0,0.0041
2522.0,0.0041
2521.0,0.004
2520.0,0.004
2519.0,0.0041
2518.0,0.0042
2517.0,0.0042
2516.0,0.0042
2515.0,0.0043
2514.0,0.0043
2513.0,0.0043
2512.0,0.0042
2511.0,0.0042
2510.0,0.0041
2509.0,0.0041
2508.0,0.0041
2507.0,0.0041
2506.0,0.0041
2505.0,0.0042
2504.0,0.0042
2503.0,0.0042
2502.0,0.0041
2501.0,0.0041
2500.0,0.0041
2499.0,0.004
2498.0,0.004
2497.0,0.0041
2496.0,0.0041
2495.0,0.0041
2494.0,0.0041
2493.0,0.0041
2492.0,0.004
2491.0,0.0041
2490.0,0.0041
2489.0,0.0042
2488.0,0.0042
2487.0,0.0042
2486.0,0.0041
2485.0,0.0041
2484.0,0.0041
2483.0,0.0041
2482.0,0.0041
2481.0,0.0041
2480.0,0.0041
2479.0,0.0041
2478.0,0.004
2477.0,0.004
2476.0,0.004
2475.0,0.004
2474.0,0.004
2473.0,0.004
2472.0,0.004
2471.0,0.004
2470.0,0.004
2469.0,0.004
2468.0,0.004
2467.0,0.004
2466.0,0.004
2465.0,0.004
2464.0,0.004
2463.0,0.004
2462.0,0.004
2461.0,0.004
2460.0,0.004
2459.0,0.004
2458.0,0.004
2457.0,0.004
2456.0,0.004
2455.0,0.0039
2454.0,0.0039
2453.0,0.0038
2452.0,0.0039
2451.0,0.0039
2450.0,0.004
2449.0,0.004
2448.0,0.0041
2447.0,0.004
2446.0,0.004
2445.0,0.004
2444.0,0.004
2443.0,0.004
2442.0,0.004
2441.0,0.0039
2440.0,0.0039
2439.0,0.0038
2438.0,0.0038
2437.0,0.0038
2436.0,0.0038
2435.0,0.0039
2434.0,0.0039
2433.0,0.0039
2432.0,0.004
2431.0,0.004
2430.0,0.004
2429.0,0.004
2428.0,0.004
2427.0,0.004
2426.0,0.0039
2425.0,0.004
2424.0,0.004
2423.0,0.0041
2422.0,0.004
2421.0,0.004
2420.0,0.0039
2419.0,0.0039
2418.0,0.0039
2417.0,0.0039
2416.0,0.0039
2415.0,0.0039
2414.0,0.0039
2413.0,0.0039
2412.0,0.0039
2411.0,0.0039
2410.0,0.0039
2409.0,0.0039
2408.0,0.0039
2407.0,0.0039
2406.0,0.0039
2405.0,0.0039
2404.0,0.0039
2403.0,0.0039
2402.0,0.004
2401.0,0.004
2400.0,0.004
2399.0,0.004
2398.0,0.004
2397.0,0.004
2396.0,0.004
2395.0,0.004
2394.0,0.004
2393.0,0.004
2392.0,0.004
2391.0,0.004
2390.0,0.004
2389.0,0.0039
2388.0,0.0039
2387.0,0.0039
2386.0,0.0039
2385.0,0.0039
2384.0,0.004
2383.0,0.004
2382.0,0.004
2381.0,0.004
2380.0,0.0039
2379.0,0.0038
2378.0,0.0036
2377.0,0.0034
2376.0,0.0032
2375.0,0.0032
2374.0,0.0034
2373.0,0.0038
2372.0,0.004
2371.0,0.004
2370.0,0.0039
2369.0,0.0039
2368.0,0.0041
2367.0,0.0047
2366.0,0.0053
2365.0,0.0057
2364.0,0.0055
2363.0,0.0045
2362.0,0.003
2361.0,0.002
2360.0,0.002
2359.0,0.0029
2358.0,0.0038
2357.0,0.0043
2356.0,0.0042
2355.0,0.0039
2354.0,0.0037
2353.0,0.0036
2352.0,0.0037
2351.0,0.0037
2350.0,0.0037
2349.0,0.0034
2348.0,0.003
2347.0,0.0026
2346.0,0.0025
2345.0,0.0029
2344.0,0.0035
2343.0,0.0039
2342.0,0.0039
2341.0,0.0034
2340.0,0.0027
2339.0,0.002
2338.0,0.0018
2337.0,0.002
2336.0,0.0026
2335.0,0.0032
2334.0,0.0034
2333.0,0.0032
2332.0,0.0029
2331.0,0.0028
2330.0,0.003
2329.0,0.0034
2328.0,0.0036
2327.0,0.0035
2326.0,0.0031
2325.0,0.0026
2324.0,0.0024
2323.0,0.0024
2322.0,0.0025
2321.0,0.0027
2320.0,0.0029
2319.0,0.0032
2318.0,0.0034
2317.0,0.0035
2316.0,0.0036
2315.0,0.0036
2314.0,0.0036
2313.0,0.0037
2312.0,0.0038
2311.0,0.0037
2310.0,0.0037
2309.0,0.0037
2308.0,0.0037
2307.0,0.0037
2306.0,0.0037
2305.0,0.0036
2304.0,0.0037
2303.0,0.0038
2302.0,0.0039
2301.0,0.004
2300.0,0.004
2299.0,0.004
2298.0,0.004
2297.0,0.004
2296.0,0.0039
2295.0,0.0039
2294.0,0.0039
2293.0,0.0039
2292.0,0.0039
2291.0,0.0039
2290.0,0.0039
2289.0,0.0039
2288.0,0.004
2287.0,0.0041
2286.0,0.0041
2285.0,0.0041
2284.0,0.004
2283.0,0.004
2282.0,0.0039
2281.0,0.0039
2280.0,0.0039
2279.0,0.0039
2278.0,0.0039
2277.0,0.0039
2276.0,0.0039
2275.0,0.0039
2274.0,0.0039
2273.0,0.0039
2272.0,0.0039
2271.0,0.0039
2270.0,0.0039
2269.0,0.0038
2268.0,0.0038
2267.0,0.0039
2266.0,0.0039
2265.0,0.004
2264.0,0.004
2263.0,0.0041
2262.0,0.0041
2261.0,0.0041
2260.0,0.0041
2259.0,0.0041
2258.0,0.0041
2257.0,0.0041
2256.0,0.0042
2255.0,0.0042
2254.0,0.0042
2253.0,0.0041
2252.0,0.0041
2251.0,0.0041
2250.0,0.0041
2249.0,0.0041
2248.0,0.004
2247.0,0.004
2246.0,0.004
2245.0,0.004
2244.0,0.004
2243.0,0.004
2242.0,0.004
2241.0,0.004
2240.0,0.0041
2239.0,0.0041
2238.0,0.0041
2237.0,0.0041
2236.0,0.0041
2235.0,0.0041
2234.0,0.0041
2233.0,0.004
2232.0,0.0039
2231.0,0.0039
2230.0,0.0039
2229.0,0.0039
2228.0,0.0039
2227.0,0.0039
2226.0,0.0039
2225.0,0.0039
2224.0,0.0039
2223.0,0.004
2222.0,0.004
2221.0,0.0039
2220.0,0.0039
2219.0,0.004
2218.0,0.004
2217.0,0.004
2216.0,0.004
2215.0,0.004
2214.0,0.0039
2213.0,0.0039
2212.0,0.0038
2211.0,0.0039
2210.0,0.0039
2209.0,0.0039
2208.0,0.0038
2207.0,0.0038
2206.0,0.0038
2205.0,0.0037
2204.0,0.0037
2203.0,0.0037
2202.0,0.0038
2201.0,0.0038
2200.0,0.0038
2199.0,0.0038
2198.0,0.0038
2197.0,0.0038
2196.0,0.0038
2195.0,0.0038
2194.0,0.0038
2193.0,0.0038
2192.0,0.0037
2191.0,0.0037
2190.0,0.0036
2189.0,0.0036
2188.0,0.0037
2187.0,0.0037
2186.0,0.0037
2185.0,0.0037
2184.0,0.0037
2183.0,0.0037
2182.0,0.0037
2181.0,0.0037
2180.0,0.0037
2179.0,0.0037
2178.0,0.0037
2177.0,0.0037
2176.0,0.0037
2175.0,0.0037
2174.0,0.0038
2173.0,0.0038
2172.0,0.0038
2171.0,0.0038
2170.0,0.0038
2169.0,0.0037
2168.0,0.0037
2167.0,0.0036
2166.0,0.0036
2165.0,0.0036
2164.0,0.0037
2163.0,0.0037
2162.0,0.0037
2161.0,0.0037
2160.0,0.0037
2159.0,0.0037
2158.0,0.0036
2157.0,0.0036
2156.0,0.0036
2155.0,0.0036
2154.0,0.0036
2153.0,0.0036
2152.0,0.0036
2151.0,0.0036
2150.0,0.0036
2149.0,0.0036
2148.0,0.0036
2147.0,0.0036
2146.0,0.0036
2145.0,0.0036
2144.0,0.0035
2143.0,0.0035
2142.0,0.0035
2141.0,0.0035
2140.0,0.0035
2139.0,0.0035
2138.0,0.0035
2137.0,0.0035
2136.0,0.0035
2135.0,0.0035
2134.0,0.0035
2133.0,0.0035
2132.0,0.0036
2131.0,0.0036
2130.0,0.0037
2129.0,0.0037
2128.0,0.0037
2127.0,0.0036
2126.0,0.0036
2125.0,0.0036
2124.0,0.0036
2123.0,0.0037
2122.0,0.0037
2121.0,0.0037
2120.0,0.0037
2119.0,0.0037
2118.0,0.0036
2117.0,0.0036
2116.0,0.0036
2115.0,0.0036
2114.0,0.0036
2113.0,0.0036
2112.0,0.0036
2111.0,0.0035
2110.0,0.0035
2109.0,0.0035
2108.0,0.0035
2107.0,0.0036
2106.0,0.0036
2105.0,0.0036
2104.0,0.0035
2103.0,0.0035
2102.0,0.0035
2101.0,0.0036
2100.0,0.0036
2099.0,0.0036
2098.0,0.0036
2097.0,0.0036
2096.0,0.0036
2095.0,0.0035
2094.0,0.0035
2093.0,0.0034
2092.0,0.0035
2091.0,0.0035
2090.0,0.0035
2089.0,0.0035
2088.0,0.0035
2087.0,0.0034
2086.0,0.0034
2085.0,0.0033
2084.0,0.0033
2083.0,0.0033
2082.0,0.0034
2081.0,0.0035
2080.0,0.0035
2079.0,0.0035
2078.0,0.0034
2077.0,0.0034
2076.0,0.0034
2075.0,0.0034
2074.0,0.0034
2073.0,0.0034
2072.0,0.0034
2071.0,0.0034
2070.0,0.0034
2069.0,0.0033
2068.0,0.0033
2067.0,0.0033
2066.0,0.0033
2065.0,0.0033
2064.0,0.0033
2063.0,0.0034
2062.0,0.0034
2061.0,0.0033
2060.0,0.0033
2059.0,0.0032
2058.0,0.0032
2057.0,0.0032
2056.0,0.0032
2055.0,0.0031
2054.0,0.0031
2053.0,0.0031
2052.0,0.0031
2051.0,0.0031
2050.0,0.0031
2049.0,0.0032
2048.0,0.0032
2047.0,0.0032
2046.0,0.0032
2045.0,0.0031
2044.0,0.0031
2043.0,0.003
2042.0,0.003
2041.0,0.003
2040.0,0.003
2039.0,0.0031
2038.0,0.0031
2037.0,0.0031
2036.0,0.0032
2035.0,0.0032
2034.0,0.0032
2033.0,0.0031
2032.0,0.0031
2031.0,0.003
2030.0,0.0029
2029.0,0.0029
2028.0,0.0029
2027.0,0.0028
2026.0,0.0028
2025.0,0.0028
2024.0,0.0028
2023.0,0.0028
2022.0,0.0028
2021.0,0.0029
2020.0,0.0029
2019.0,0.0029
2018.0,0.0029
2017.0,0.0029
2016.0,0.0029
2015.0,0.0028
2014.0,0.0027
2013.0,0.0027
2012.0,0.0027
2011.0,0.0027
2010.0,0.0027
2009.0,0.0027
2008.0,0.0027
2007.0,0.0027
2006.0,0.0027
2005.0,0.0027
2004.0,0.0027
2003.0,0.0028
2002.0,0.0028
2001.0,0.0027
2000.0,0.0027
1999.0,0.0026
1998.0,0.0026
1997.0,0.0026
1996.0,0.0026
1995.0,0.0026
1994.0,0.0026
1993.0,0.0027
1992.0,0.0026
1991.0,0.0027
1990.0,0.0027
1989.0,0.0028
1988.0,0.0028
1987.0,0.0028
1986.0,0.0028
1985.0,0.0027
1984.0,0.0027
1983.0,0.0027
1982.0,0.0027
1981.0,0.0028
1980.0,0.0028
1979.0,0.0028
1978.0,0.0028
1977.0,0.0028
1976.0,0.0028
1975.0,0.0028
1974.0,0.0028
1973.0,0.0028
1972.0,0.0028
1971.0,0.0028
1970.0,0.0028
1969.0,0.0027
1968.0,0.0027
1967.0,0.0027
1966.0,0.0026
1965.0,0.0026
1964.0,0.0026
1963.0,0.0026
1962.0,0.0026
1961.0,0.0027
1960.0,0.0027
1959.0,0.0027
1958.0,0.0027
1957.0,0.0027
1956.0,0.0027
1955.0,0.0027
1954.0,0.0027
1953.0,0.0026
1952.0,0.0026
1951.0,0.0026
1950.0,0.0026
1949.0,0.0026
1948.0,0.0027
1947.0,0.0027
1946.0,0.0027
1945.0,0.0026
1944.0,0.0026
1943.0,0.0026
1942.0,0.0027
1941.0,0.0027
1940.0,0.0026
1939.0,0.0026
1938.0,0.0026
1937.0,0.0026
1936.0,0.0026
1935.0,0.0026
1934.0,0.0026
1933.0,0.0026
1932.0,0.0026
1931.0,0.0025
1930.0,0.0024
1929.0,0.0024
1928.0,0.0023
1927.0,0.0023
1926.0,0.0023
1925.0,0.0022
1924.0,0.0022
1923.0,0.0022
1922.0,0.0022
1921.0,0.0022
1920.0,0.0021
1919.0,0.0021
1918.0,0.0021
1917.0,0.0021
1916.0,0.0021
1915.0,0.0021
1914.0,0.0021
1913.0,0.0021
1912.0,0.002
1911.0,0.0021
1910.0,0.002
1909.0,0.002
1908.0,0.002
1907.0,0.002
1906.0,0.002
1905.0,0.002
1904.0,0.002
1903.0,0.0019
1902.0,0.0019
1901.0,0.0019
1900.0,0.0019
1899.0,0.0019
1898.0,0.0019
1897.0,0.0018
1896.0,0.0018
1895.0,0.0018
1894.0,0.0017
1893.0,0.0017
1892.0,0.0016
1891.0,0.0016
1890.0,0.0016
1889.0,0.0015
1888.0,0.0015
1887.0,0.0015
1886.0,0.0015
1885.0,0.0016
1884.0,0.0016
1883.0,0.0016
1882.0,0.0016
1881.0,0.0015
1880.0,0.0015
1879.0,0.0015
1878.0,0.0015
1877.0,0.0015
1876.0,0.0015
1875.0,0.0014
1874.0,0.0014
1873.0,0.0014
1872.0,0.0013
1871.0,0.0013
1870.0,0.0013
1869.0,0.0013
1868.0,0.0014
1867.0,0.0015
1866.0,0.0015
1865.0,0.0014
1864.0,0.0014
1863.0,0.0013
1862.0,0.0012
1861.0,0.0012
1860.0,0.0011
1859.0,0.0012
1858.0,0.0012
1857.0,0.0012
1856.0,0.0012
1855.0,0.0011
1854.0,0.0011
1853.0,0.0011
1852.0,0.0011
1851.0,0.001
1850.0,0.001
1849.0,0.001
1848.0,0.001
1847.0,0.001
1846.0,0.001
1845.0,0.001
1844.0,0.001
1843.0,0.001
1842.0,0.001
1841.0,0.001
1840.0,0.001
1839.0,0.001
1838.0,0.001
1837.0,0.001
1836.0,0.0009
1835.0,0.0009
1834.0,0.0008
1833.0,0.0008
1832.0,0.0009
1831.0,0.0009
1830.0,0.0009
1829.0,0.0009
1828.0,0.0009
1827.0,0.0009
1826.0,0.0008
1825.0,0.0008
1824.0,0.0007
1823.0,0.0007
1822.0,0.0007
1821.0,0.0007
1820.0,0.0007
1819.0,0.0008
1818.0,0.0008
1817.0,0.0007
1816.0,0.0007
1815.0,0.0006
1814.0,0.0006
1813.0,0.0006
1812.0,0.0006
1811.0,0.0006
1810.0,0.0006
1809.0,0.0005
1808.0,0.0004
1807.0,0.0004
1806.0,0.0004
1805.0,0.0003
1804.0,0.0003
1803.0,0.0002
1802.0,0.0002
1801.0,0.0001
1800.0,0.0
1799.0,-0.0
1798.0,-0.0
1797.0,-0.0001
1796.0,-0.0002
1795.0,-0.0003
1794.0,-0.0003
1793.0,-0.0004
1792.0,-0.0004
1791.0,-0.0003
1790.0,-0.0003
1789.0,-0.0004
1788.0,-0.0004
1787.0,-0.0005
1786.0,-0.0006
1785.0,-0.0006
1784.0,-0.0007
1783.0,-0.0007
1782.0,-0.0007
1781.0,-0.0007
1780.0,-0.0008
1779.0,-0.0008
1778.0,-0.0009
1777.0,-0.001
1776.0,-0.0011
1775.0,-0.0011
1774.0,-0.0011
1773.0,-0.0011
1772.0,-0.0011
1771.0,-0.0011
1770.0,-0.0011
1769.0,-0.0011
1768.0,-0.0011
1767.0,-0.0012
1766.0,-0.0012
1765.0,-0.0012
1764.0,-0.0013
1763.0,-0.0012
1762.0,-0.0011
1761.0,-0.0011
1760.0,-0.001
1759.0,-0.0009
1758.0,-0.0008
1757.0,-0.0007
1756.0,-0.0005
1755.0,-0.0003
1754.0,-0.0002
1753.0,0.0
1752.0,0.0003
1751.0,0.0007
1750.0,0.0012
1749.0,0.0018
1748.0,0.0025
1747.0,0.0033
1746.0,0.0041
1745.0,0.0051
1744.0,0.0063
1743.0,0.0076
1742.0,0.0089
1741.0,0.0103
1740.0,0.0121
1739.0,0.0139
1738.0,0.0154
1737.0,0.0166
1736.0,0.0178
1735.0,0.0196
1734.0,0.0221
1733.0,0.0242
1732.0,0.0258
1731.0,0.0273
1730.0,0.0289
1729.0,0.0304
1728.0,0.032
1727.0,0.0334
1726.0,0.0348
1725.0,0.0362
1724.0,0.0376
1723.0,0.039
1722.0,0.0402
1721.0,0.0413
1720.0,0.0422
1719.0,0.043
1718.0,0.0436
1717.0,0.0439
1716.0,0.0441
1715.0,0.0441
1714.0,0.0439
1713.0,0.0435
1712.0,0.0428
1711.0,0.0418
1710.0,0.0406
1709.0,0.0392
1708.0,0.0377
1707.0,0.0359
1706.0,0.0337
1705.0,0.0318
1704.0,0.0306
1703.0,0.0297
1702.0,0.0287
1701.0,0.0271
1700.0,0.0254
1699.0,0.0245
1698.0,0.024
1697.0,0.0234
1696.0,0.0225
1695.0,0.0217
1694.0,0.0212
1693.0,0.021
1692.0,0.0207
1691.0,0.0204
1690.0,0.02
1689.0,0.0197
1688.0,0.0195
1687.0,0.0194
1686.0,0.0192
1685.0,0.0188
1684.0,0.0184
1683.0,0.0182
1682.0,0.0182
1681.0,0.0181
1680.0,0.018
1679.0,0.0179
1678.0,0.0178
1677.0,0.0176
1676.0,0.0175
1675.0,0.0172
1674.0,0.0171
1673.0,0.017
1672.0,0.0169
1671.0,0.0168
1670.0,0.0166
1669.0,0.0165
1668.0,0.0165
1667.0,0.0165
1666.0,0.0165
1665.0,0.0165
1664.0,0.0163
1663.0,0.0162
1662.0,0.0161
1661.0,0.0162
1660.0,0.0162
1659.0,0.0163
1658.0,0.0162
1657.0,0.0162
1656.0,0.0162
1655.0,0.0162
1654.0,0.016
1653.0,0.0159
1652.0,0.0161
1651.0,0.0163
1650.0,0.0164
1649.0,0.0166
1648.0,0.0169
1647.0,0.0172
1646.0,0.0177
1645.0,0.0181
1644.0,0.0186
1643.0,0.019
1642.0,0.0194
1641.0,0.0197
1640.0,0.02
1639.0,0.0202
1638.0,0.0203
1637.0,0.0204
1636.0,0.0203
1635.0,0.0203
1634.0,0.0202
1633.0,0.0201
1632.0,0.0199
1631.0,0.0196
1630.0,0.0192
1629.0,0.0188
1628.0,0.0183
1627.0,0.0179
1626.0,0.0176
1625.0,0.0172
1624.0,0.0168
1623.0,0.0164
1622.0,0.0161
1621.0,0.016
1620.0,0.0159
1619.0,0.0158
1618.0,0.0156
1617.0,0.0155
1616.0,0.0154
1615.0,0.0153
1614.0,0.0152
1613.0,0.0152
1612.0,0.0151
1611.0,0.015
1610.0,0.0148
1609.0,0.0146
1608.0,0.0143
1607.0,0.0141
1606.0,0.0139
1605.0,0.0137
1604.0,0.0135
1603.0,0.0133
1602.0,0.0131
1601.0,0.0129
1600.0,0.0128
1599.0,0.0126
1598.0,0.0124
1597.0,0.0123
1596.0,0.0121
1595.0,0.0119
1594.0,0.0118
1593.0,0.0116
1592.0,0.0115
1591.0,0.0113
1590.0,0.0112
1589.0,0.011
1588.0,0.0109
1587.0,0.0108
1586.0,0.0107
1585.0,0.0107
1584.0,0.0107
1583.0,0.0108
1582.0,0.011
1581.0,0.0112
1580.0,0.0114
1579.0,0.0116
1578.0,0.0117
1577.0,0.0117
1576.0,0.0114
1575.0,0.0111
1574.0,0.0108
1573.0,0.0106
1572.0,0.0103
1571.0,0.01
1570.0,0.0096
1569.0,0.0093
1568.0,0.0091
1567.0,0.009
1566.0,0.0089
1565.0,0.0087
1564.0,0.0085
1563.0,0.0084
1562.0,0.0083
1561.0,0.0083
1560.0,0.0082
1559.0,0.0079
1558.0,0.0076
1557.0,0.0076
1556.0,0.0076
1555.0,0.0075
1554.0,0.0074
1553.0,0.0074
1552.0,0.0073
1551.0,0.0073
1550.0,0.0072
1549.0,0.0071
1548.0,0.0071
1547.0,0.007
1546.0,0.007
1545.0,0.0069
1544.0,0.0067
1543.0,0.0066
1542.0,0.0066
1541.0,0.0065
1540.0,0.0065
1539.0,0.0064
1538.0,0.0064
1537.0,0.0063
1536.0,0.0063
1535.0,0.0063
1534.0,0.0063
1533.0,0.0063
1532.0,0.0062
1531.0,0.0062
1530.0,0.0062
1529.0,0.0062
1528.0,0.0061
1527.0,0.006
1526.0,0.0059
1525.0,0.0058
1524.0,0.0058
1523.0,0.0058
1522.0,0.0057
1521.0,0.0057
1520.0,0.0056
1519.0,0.0056
1518.0,0.0055
1517.0,0.0054
1516.0,0.0053
1515.0,0.0053
1514.0,0.0052
1513.0,0.0053
1512.0,0.0053
1511.0,0.0054
1510.0,0.0056
1509.0,0.0057
1508.0,0.0063
1507.0,0.0075
1506.0,0.0086
1505.0,0.0088
1504.0,0.0087
1503.0,0.0084
1502.0,0.0079
1501.0,0.0074
1500.0,0.0069
1499.0,0.0065
1498.0,0.0061
1497.0,0.0058
1496.0,0.0055
1495.0,0.0053
1494.0,0.0052
1493.0,0.0051
1492.0,0.005
1491.0,0.0048
1490.0,0.0047
1489.0,0.0046
1488.0,0.0047
1487.0,0.0047
1486.0,0.0048
1485.0,0.0048
1484.0,0.0049
1483.0,0.005
1482.0,0.0051
1481.0,0.0052
1480.0,0.0053
1479.0,0.0054
1478.0,0.0055
1477.0,0.0055
1476.0,0.0056
1475.0,0.0057
1474.0,0.0057
1473.0,0.0058
1472.0,0.0059
1471.0,0.006
1470.0,0.006
1469.0,0.0061
1468.0,0.0061
1467.0,0.0062
1466.0,0.0064
1465.0,0.0066
1464.0,0.0068
1463.0,0.007
1462.0,0.0072
1461.0,0.0073
1460.0,0.0075
1459.0,0.0077
1458.0,0.008
1457.0,0.0084
1456.0,0.0086
1455.0,0.0087
1454.0,0.0088
1453.0,0.0088
1452.0,0.0089
1451.0,0.0089
1450.0,0.0088
1449.0,0.0087
1448.0,0.0086
1447.0,0.0085
1446.0,0.0084
1445.0,0.0083
1444.0,0.0082
1443.0,0.0082
1442.0,0.0081
1441.0,0.0081
1440.0,0.008
1439.0,0.0079
1438.0,0.0077
1437.0,0.0075
1436.0,0.0072
1435.0,0.007
1434.0,0.0068
1433.0,0.0066
1432.0,0.0062
1431.0,0.0058
1430.0,0.0054
1429.0,0.005
1428.0,0.0048
1427.0,0.0046
1426.0,0.0045
1425.0,0.0043
1424.0,0.0042
1423.0,0.0041
1422.0,0.004
1421.0,0.0041
1420.0,0.0043
1419.0,0.0048
1418.0,0.0054
1417.0,0.0062
1416.0,0.0071
1415.0,0.0082
1414.0,0.0097
1413.0,0.0115
1412.0,0.0135
1411.0,0.0154
1410.0,0.0168
1409.0,0.0177
1408.0,0.0181
1407.0,0.0179
1406.0,0.0171
1405.0,0.0159
1404.0,0.0147
1403.0,0.0138
1402.0,0.0129
1401.0,0.0122
1400.0,0.0115
1399.0,0.0107
1398.0,0.0101
1397.0,0.0097
1396.0,0.0092
1395.0,0.0088
1394.0,0.0084
1393.0,0.0081
1392.0,0.0079
1391.0,0.0077
1390.0,0.0074
1389.0,0.0071
1388.0,0.0069
1387.0,0.0068
1386.0,0.0067
1385.0,0.0067
1384.0,0.0067
1383.0,0.0067
1382.0,0.0068
1381.0,0.0069
1380.0,0.0071
1379.0,0.0073
1378.0,0.0074
1377.0,0.0076
1376.0,0.0078
1375.0,0.0081
1374.0,0.0083
1373.0,0.0085
1372.0,0.0086
1371.0,0.0086
1370.0,0.0086
1369.0,0.0084
1368.0,0.0081
1367.0,0.0078
1366.0,0.0074
1365.0,0.007
1364.0,0.0064
1363.0,0.0058
1362.0,0.0053
1361.0,0.005
1360.0,0.0047
1359.0,0.0045
1358.0,0.0043
1357.0,0.0042
1356.0,0.0041
1355.0,0.0041
1354.0,0.0041
1353.0,0.0042
1352.0,0.0043
1351.0,0.0045
1350.0,0.0049
1349.0,0.0053
1348.0,0.0059
1347.0,0.0065
1346.0,0.0072
1345.0,0.0081
1344.0,0.009
1343.0,0.0099
1342.0,0.0108
1341.0,0.0116
1340.0,0.0123
1339.0,0.0126
1338.0,0.0125
1337.0,0.0119
1336.0,0.011
1335.0,0.0099
1334.0,0.0087
1333.0,0.0075
1332.0,0.0063
1331.0,0.0054
1330.0,0.0046
1329.0,0.0041
1328.0,0.0038
1327.0,0.0036
1326.0,0.0035
1325.0,0.0034
1324.0,0.0035
1323.0,0.0037
1322.0,0.0038
1321.0,0.0041
1320.0,0.0043
1319.0,0.0045
1318.0,0.0048
1317.0,0.005
1316.0,0.0052
1315.0,0.0055
1314.0,0.0058
1313.0,0.0062
1312.0,0.0066
1311.0,0.0069
1310.0,0.0074
1309.0,0.0078
1308.0,0.0082
1307.0,0.0086
1306.0,0.009
1305.0,0.0095
1304.0,0.01
1303.0,0.0105
1302.0,0.0111
1301.0,0.0118
1300.0,0.0126
1299.0,0.0135
1298.0,0.0145
1297.0,0.0156
1296.0,0.0167
1295.0,0.0178
1294.0,0.0189
1293.0,0.0199
1292.0,0.0209
1291.0,0.0218
1290.0,0.0227
1289.0,0.0236
1288.0,0.0244
1287.0,0.0252
1286.0,0.0259
1285.0,0.0265
1284.0,0.0271
1283.0,0.0277
1282.0,0.0282
1281.0,0.0286
1280.0,0.029
1279.0,0.0294
1278.0,0.0298
1277.0,0.0303
1276.0,0.0308
1275.0,0.0315
1274.0,0.0323
1273.0,0.0332
1272.0,0.0344
1271.0,0.0357
1270.0,0.0371
1269.0,0.0386
1268.0,0.0401
1267.0,0.0416
1266.0,0.043
1265.0,0.0443
1264.0,0.0455
1263.0,0.0466
1262.0,0.0475
1261.0,0.0482
1260.0,0.0487
1259.0,0.0491
1258.0,0.0493
1257.0,0.0495
1256.0,0.0497
1255.0,0.0499
1254.0,0.0502
1253.0,0.0506
1252.0,0.0511
1251.0,0.0517
1250.0,0.0524
1249.0,0.0532
1248.0,0.0541
1247.0,0.0549
1246.0,0.0557
1245.0,0.0565
1244.0,0.0572
1243.0,0.0579
1242.0,0.0584
1241.0,0.0588
1240.0,0.059
1239.0,0.059
1238.0,0.0588
1237.0,0.0583
1236.0,0.0577
1235.0,0.0568
1234.0,0.0558
1233.0,0.0546
1232.0,0.0534
1231.0,0.0522
1230.0,0.0508
1229.0,0.0495
1228.0,0.0482
1227.0,0.0468
1226.0,0.0454
1225.0,0.044
1224.0,0.0427
1223.0,0.0415
1222.0,0.0403
1221.0,0.0391
1220.0,0.038
1219.0,0.0368
1218.0,0.0356
1217.0,0.0345
1216.0,0.0335
1215.0,0.0326
1214.0,0.0318
1213.0,0.031
1212.0,0.0302
1211.0,0.0295
1210.0,0.0287
1209.0,0.028
1208.0,0.0274
1207.0,0.0269
1206.0,0.0263
1205.0,0.0258
1204.0,0.0253
1203.0,0.0247
1202.0,0.0242
1201.0,0.0237
1200.0,0.0233
1199.0,0.0228
1198.0,0.0224
1197.0,0.022
1196.0,0.0215
1195.0,0.0211
1194.0,0.0206
1193.0,0.0202
1192.0,0.0198
1191.0,0.0195
1190.0,0.0191
1189.0,0.0188
1188.0,0.0186
1187.0,0.0183
1186.0,0.0181
1185.0,0.0179
1184.0,0.0177
1183.0,0.0177
1182.0,0.0177
1181.0,0.0177
1180.0,0.0179
1179.0,0.018
1178.0,0.0182
1177.0,0.0184
1176.0,0.0185
1175.0,0.0186
1174.0,0.0187
1173.0,0.0186
1172.0,0.0183
1171.0,0.018
1170.0,0.0176
1169.0,0.0173
1168.0,0.0169
1167.0,0.0165
1166.0,0.0161
1165.0,0.0158
1164.0,0.0156
1163.0,0.0153
1162.0,0.0151
1161.0,0.0149
1160.0,0.0148
1159.0,0.0147
1158.0,0.0147
1157.0,0.0147
1156.0,0.0147
1155.0,0.0147
1154.0,0.0148
1153.0,0.0149
1152.0,0.0152
1151.0,0.0155
1150.0,0.0158
1149.0,0.0162
1148.0,0.0166
1147.0,0.017
1146.0,0.0175
1145.0,0.0181
1144.0,0.0188
1143.0,0.0195
1142.0,0.0202
1141.0,0.0208
1140.0,0.0215
1139.0,0.0222
1138.0,0.0229
1137.0,0.0237
1136.0,0.0245
1135.0,0.0253
1134.0,0.0261
1133.0,0.027
1132.0,0.0279
1131.0,0.0288
1130.0,0.0298
1129.0,0.0309
1128.0,0.0322
1127.0,0.0336
1126.0,0.035
1125.0,0.0364
1124.0,0.0378
1123.0,0.0392
1122.0,0.0405
1121.0,0.0418
1120.0,0.0431
1119.0,0.0442
1118.0,0.045
1117.0,0.0457
1116.0,0.046
1115.0,0.0461
1114.0,0.0459
1113.0,0.0456
1112.0,0.0455
1111.0,0.0455
1110.0,0.0459
1109.0,0.0466
1108.0,0.0478
1107.0,0.0494
1106.0,0.0512
1105.0,0.0532
1104.0,0.0553
1103.0,0.0573
1102.0,0.0592
1101.0,0.061
1100.0,0.0628
1099.0,0.0645
1098.0,0.0661
1097.0,0.0674
1096.0,0.0686
1095.0,0.0695
1094.0,0.0701
1093.0,0.0704
1092.0,0.0706
1091.0,0.0707
1090.0,0.0705
1089.0,0.0702
1088.0,0.0699
1087.0,0.0695
1086.0,0.069
1085.0,0.0685
1084.0,0.0679
1083.0,0.067
1082.0,0.0661
1081.0,0.065
1080.0,0.0639
1079.0,0.0627
1078.0,0.0614
1077.0,0.0599
1076.0,0.0584
1075.0,0.0568
1074.0,0.0551
1073.0,0.0535
1072.0,0.052
1071.0,0.0505
1070.0,0.049
1069.0,0.0476
1068.0,0.0464
1067.0,0.0453
1066.0,0.0442
1065.0,0.0431
1064.0,0.0421
1063.0,0.0411
1062.0,0.0401
1061.0,0.0392
1060.0,0.0384
1059.0,0.0377
1058.0,0.037
1057.0,0.0364
1056.0,0.036
1055.0,0.0357
1054.0,0.0354
1053.0,0.0352
1052.0,0.035
1051.0,0.035
1050.0,0.0351
1049.0,0.0351
1048.0,0.0352
1047.0,0.0352
1046.0,0.0353
1045.0,0.0353
1044.0,0.0353
1043.0,0.0353
1042.0,0.0351
1041.0,0.035
1040.0,0.0347
1039.0,0.0345
1038.0,0.0341
1037.0,0.0337
1036.0,0.0333
1035.0,0.033
1034.0,0.0326
1033.0,0.0321
1032.0,0.0317
1031.0,0.0311
1030.0,0.0306
1029.0,0.03
1028.0,0.0296
1027.0,0.0293
1026.0,0.0293
1025.0,0.0297
1024.0,0.0306
1023.0,0.0323
1022.0,0.0349
1021.0,0.0381
1020.0,0.0419
1019.0,0.0456
1018.0,0.0489
1017.0,0.0512
1016.0,0.0521
1015.0,0.0515
1014.0,0.0498
1013.0,0.0474
1012.0,0.0449
1011.0,0.0426
1010.0,0.0406
1009.0,0.0389
1008.0,0.0375
1007.0,0.0363
1006.0,0.0353
1005.0,0.0344
1004.0,0.0336
1003.0,0.0329
1002.0,0.0323
1001.0,0.0318
1000.0,0.0313
999.0,0.0309
998.0,0.0305
997.0,0.0301
996.0,0.0298
995.0,0.0295
994.0,0.0292
993.0,0.0289
992.0,0.0286
991.0,0.0283
990.0,0.0282
989.0,0.028
988.0,0.0279
987.0,0.0278
986.0,0.0278
985.0,0.0278
984.0,0.0279
983.0,0.028
982.0,0.0281
981.0,0.0281
980.0,0.0282
979.0,0.0283
978.0,0.0284
977.0,0.0284
976.0,0.0285
975.0,0.0287
974.0,0.0288
973.0,0.029
972.0,0.0291
971.0,0.0292
970.0,0.0293
969.0,0.0293
968.0,0.0292
967.0,0.029
966.0,0.0288
965.0,0.0286
964.0,0.0284
963.0,0.0282
962.0,0.028
961.0,0.0277
960.0,0.0274
959.0,0.0271
958.0,0.0267
957.0,0.0264
956.0,0.0262
955.0,0.026
954.0,0.0258
953.0,0.0257
952.0,0.0256
951.0,0.0254
950.0,0.0252
949.0,0.025
948.0,0.0249
947.0,0.0248
946.0,0.0248
945.0,0.0247
944.0,0.0246
943.0,0.0245
942.0,0.0243
941.0,0.0241
940.0,0.0239
939.0,0.0238
938.0,0.0237
937.0,0.0237
936.0,0.0237
935.0,0.0236
934.0,0.0236
933.0,0.0235
932.0,0.0234
931.0,0.0234
930.0,0.0233
929.0,0.0232
928.0,0.0232
927.0,0.0231
926.0,0.023
925.0,0.0229
924.0,0.0227
923.0,0.0226
922.0,0.0225
921.0,0.0223
920.0,0.0221
919.0,0.022
918.0,0.022
917.0,0.0219
916.0,0.0219
915.0,0.0219
914.0,0.022
913.0,0.0221
912.0,0.0222
911.0,0.0223
910.0,0.0223
909.0,0.0225
908.0,0.0227
907.0,0.0229
906.0,0.0232
905.0,0.0235
904.0,0.0238
903.0,0.0241
902.0,0.0243
901.0,0.0246
900.0,0.0249
899.0,0.0251
898.0,0.0253
897.0,0.0253
896.0,0.0252
895.0,0.0251
894.0,0.025
893.0,0.025
892.0,0.025
891.0,0.025
890.0,0.0249
889.0,0.0249
888.0,0.0249
887.0,0.025
886.0,0.0252
885.0,0.0255
884.0,0.026
883.0,0.0266
882.0,0.0275
881.0,0.0285
880.0,0.0296
879.0,0.0308
878.0,0.0321
877.0,0.0337
876.0,0.0353
875.0,0.0369
874.0,0.0381
873.0,0.0389
872.0,0.0392
871.0,0.0388
870.0,0.0379
869.0,0.0368
868.0,0.0356
867.0,0.0346
866.0,0.0336
865.0,0.0328
864.0,0.0321
863.0,0.0314
862.0,0.0309
861.0,0.0305
860.0,0.0302
859.0,0.0299
858.0,0.0297
857.0,0.0296
856.0,0.0294
855.0,0.0293
854.0,0.0292
853.0,0.0292
852.0,0.0293
851.0,0.0294
850.0,0.0295
849.0,0.0295
848.0,0.0295
847.0,0.0296
846.0,0.0297
845.0,0.0297
844.0,0.0297
843.0,0.0296
842.0,0.0294
841.0,0.0293
840.0,0.0293
839.0,0.0293
838.0,0.0292
837.0,0.029
836.0,0.0287
835.0,0.0284
834.0,0.0281
833.0,0.0279
832.0,0.0276
831.0,0.0274
830.0,0.0271
829.0,0.0268
828.0,0.0266
827.0,0.0265
826.0,0.0264
825.0,0.0263
824.0,0.0261
823.0,0.0259
822.0,0.0258
821.0,0.0257
820.0,0.0256
819.0,0.0256
818.0,0.0257
817.0,0.0257
816.0,0.0257
815.0,0.0257
814.0,0.0255
813.0,0.0255
812.0,0.0255
811.0,0.0255
810.0,0.0255
809.0,0.0253
808.0,0.0252
807.0,0.025
806.0,0.0248
805.0,0.0247
804.0,0.0245
803.0,0.0244
802.0,0.0244
801.0,0.0244
800.0,0.0244
799.0,0.0244
798.0,0.0246
797.0,0.0251
796.0,0.026
795.0,0.027
794.0,0.0278
793.0,0.0281
792.0,0.0282
791.0,0.0282
790.0,0.028
789.0,0.0277
788.0,0.0272
787.0,0.0267
786.0,0.0262
785.0,0.0257
784.0,0.0253
783.0,0.0249
782.0,0.0246
781.0,0.0243
780.0,0.0242
779.0,0.0241
778.0,0.024
777.0,0.0238
776.0,0.0237
775.0,0.0236
774.0,0.0235
773.0,0.0232
772.0,0.023
771.0,0.0227
770.0,0.0225
769.0,0.0223
768.0,0.022
767.0,0.0217
766.0,0.0213
765.0,0.021
764.0,0.0207
763.0,0.0204
762.0,0.0201
761.0,0.0198
760.0,0.0194
759.0,0.019
758.0,0.0186
757.0,0.0183
756.0,0.018
755.0,0.0176
754.0,0.0171
753.0,0.0166
752.0,0.0162
751.0,0.0158
750.0,0.0155
749.0,0.0151
748.0,0.0147
747.0,0.0144
746.0,0.0142
745.0,0.0142
744.0,0.0145
743.0,0.0153
742.0,0.0168
741.0,0.019
740.0,0.0221
739.0,0.0259
738.0,0.0303
737.0,0.035
736.0,0.0401
735.0,0.0454
734.0,0.0511
733.0,0.0572
732.0,0.0637
731.0,0.0704
730.0,0.0772
729.0,0.0842
728.0,0.0914
727.0,0.098
726.0,0.1035
725.0,0.1073
724.0,0.1091
723.0,0.1087
722.0,0.1061
721.0,0.1018
720.0,0.0967
719.0,0.0916
718.0,0.0869
717.0,0.0829
716.0,0.0794
715.0,0.0765
714.0,0.0739
713.0,0.0718
712.0,0.0701
711.0,0.0687
710.0,0.0675
709.0,0.0664
708.0,0.0653
707.0,0.0642
706.0,0.0629
705.0,0.0618
704.0,0.061
703.0,0.0604
702.0,0.0598
701.0,0.059
700.0,0.0579
699.0,0.0568
698.0,0.0557
697.0,0.0546
696.0,0.0537
695.0,0.0527
694.0,0.0518
693.0,0.0512
692.0,0.0512
691.0,0.0516
690.0,0.052
689.0,0.052
688.0,0.0517
687.0,0.0511
686.0,0.0505
685.0,0.0502
684.0,0.05
683.0,0.0499
682.0,0.0493
681.0,0.0485
680.0,0.0477
679.0,0.0473
678.0,0.0472
677.0,0.0473
676.0,0.0471
675.0,0.0465
674.0,0.0457
673.0,0.0451
672.0,0.0447
671.0,0.0443
670.0,0.0435
669.0,0.0425
668.0,0.0426
667.0,0.0434
666.0,0.0438
665.0,0.0439
664.0,0.044
663.0,0.044
662.0,0.044
661.0,0.0441
660.0,0.0443
659.0,0.0442
658.0,0.0439
657.0,0.0437
656.0,0.0439
655.0,0.0444
654.0,0.0447
653.0,0.045
652.0,0.0454
651.0,0.0456
650.0,0.0455
649.0,0.0452
648.0,0.0446
647.0,0.0436
646.0,0.0423
645.0,0.0413
644.0,0.0411
643.0,0.0418
642.0,0.0428
641.0,0.0437
640.0,0.0442
639.0,0.0441
638.0,0.0437
637.0,0.0435
636.0,0.0441
635.0,0.0449
634.0,0.0457
633.0,0.0462
632.0,0.0465
631.0,0.0466
630.0,0.0463
629.0,0.046
628.0,0.0458
627.0,0.0457
626.0,0.0454
625.0,0.0451
624.0,0.045
623.0,0.0447
622.0,0.0443
621.0,0.0442
620.0,0.0446
619.0,0.0454
618.0,0.046
617.0,0.0464
616.0,0.0466
615.0,0.0464
614.0,0.0461
613.0,0.046
612.0,0.0464
611.0,0.0468
610.0,0.0467
609.0,0.0463
608.0,0.0458
607.0,0.0454
606.0,0.0447
605.0,0.0441
604.0,0.0441
603.0,0.0446
602.0,0.0453
601.0,0.0459
600.0,0.0459
