cm-1,A
4000.0,-0.0024
3999.0,-0.0025
3998.0,-0.0025
3997.0,-0.0024
3996.0,-0.0024
3995.0,-0.0024
3994.0,-0.0024
3993.0,-0.0023
3992.0,-0.0023
3991.0,-0.0023
3990.0,-0.0023
3989.0,-0.0022
3988.0,-0.0023
3987.0,-0.0023
3986.0,-0.0024
3985.0,-0.0024
3984.0,-0.0024
3983.0,-0.0024
3982.0,-0.0024
3981.0,-0.0024
3980.0,-0.0024
3979.0,-0.0024
3978.0,-0.0025
3977.0,-0.0024
3976.0,-0.0024
3975.0,-0.0024
3974.0,-0.0023
3973.0,-0.0023
3972.0,-0.0023
3971.0,-0.0023
3970.0,-0.0023
3969.0,-0.0023
3968.0,-0.0024
3967.0,-0.0024
3966.0,-0.0023
3965.0,-0.0024
3964.0,-0.0024
3963.0,-0.0024
3962.0,-0.0024
3961.0,-0.0023
3960.0,-0.0023
3959.0,-0.0022
3958.0,-0.0022
3957.0,-0.0023
3956.0,-0.0023
3955.0,-0.0024
3954.0,-0.0024
3953.0,-0.0025
3952.0,-0.0025
3951.0,-0.0025
3950.0,-0.0025
3949.0,-0.0024
3948.0,-0.0024
3947.0,-0.0023
3946.0,-0.0023
3945.0,-0.0023
3944.0,-0.0024
3943.0,-0.0024
3942.0,-0.0024
3941.0,-0.0023
3940.0,-0.0023
3939.0,-0.0023
3938.0,-0.0023
3937.0,-0.0023
3936.0,-0.0022
3935.0,-0.0022
3934.0,-0.0022
3933.0,-0.0022
3932.0,-0.0023
3931.0,-0.0023
3930.0,-0.0023
3929.0,-0.0023
3928.0,-0.0023
3927.0,-0.0022
3926.0,-0.0022
3925.0,-0.0022
3924.0,-0.0022
3923.0,-0.0021
3922.0,-0.0022
3921.0,-0.0022
3920.0,-0.0023
3919.0,-0.0024
3918.0,-0.0023
3917.0,-0.0023
3916.0,-0.0022
3915.0,-0.0022
3914.0,-0.0022
3913.0,-0.0023
3912.0,-0.0023
3911.0,-0.0023
3910.0,-0.0022
3909.0,-0.0022
3908.0,-0.0022
3907.0,-0.0021
3906.0,-0.0022
3905.0,-0.0021
3904.0,-0.0021
3903.0,-0.0021
3902.0,-0.0021
3901.0,-0.0022
3900.0,-0.0023
3899.0,-0.0022
3898.0,-0.0022
3897.0,-0.0022
3896.0,-0.0022
3895.0,-0.0022
3894.0,-0.0023
3893.0,-0.0023
3892.0,-0.0024
3891.0,-0.0023
3890.0,-0.0022
3889.0,-0.0022
3888.0,-0.0022
3887.0,-0.0023
3886.0,-0.0024
3885.0,-0.0023
3884.0,-0.0021
3883.0,-0.0021
3882.0,-0.0022
3881.0,-0.0022
3880.0,-0.0022
3879.0,-0.0021
3878.0,-0.002
3877.0,-0.0021
3876.0,-0.0022
3875.0,-0.0023
3874.0,-0.0022
3873.0,-0.002
3872.0,-0.0019
3871.0,-0.0019
3870.0,-0.0018
3869.0,-0.0018
3868.0,-0.0018
3867.0,-0.002
3866.0,-0.0022
3865.0,-0.0023
3864.0,-0.0022
3863.0,-0.0021
3862.0,-0.0021
3861.0,-0.0021
3860.0,-0.0021
3859.0,-0.0022
3858.0,-0.0022
3857.0,-0.0022
3856.0,-0.0023
3855.0,-0.0025
3854.0,-0.0025
3853.0,-0.0023
3852.0,-0.0021
3851.0,-0.0021
3850.0,-0.0021
3849.0,-0.0021
3848.0,-0.0021
3847.0,-0.002
3846.0,-0.002
3845.0,-0.0019
3844.0,-0.0019
3843.0,-0.0018
3842.0,-0.0018
3841.0,-0.0019
3840.0,-0.0019
3839.0,-0.0018
3838.0,-0.0017
3837.0,-0.0017
3836.0,-0.0017
3835.0,-0.0017
3834.0,-0.0018
3833.0,-0.0018
3832.0,-0.0018
3831.0,-0.0018
3830.0,-0.0018
3829.0,-0.0018
3828.0,-0.0018
3827.0,-0.0019
3826.0,-0.0018
3825.0,-0.0017
3824.0,-0.0017
3823.0,-0.0019
3822.0,-0.0021
3821.0,-0.002
3820.0,-0.0019
3819.0,-0.0019
3818.0,-0.002
3817.0,-0.0022
3816.0,-0.0022
3815.0,-0.0021
3814.0,-0.002
3813.0,-0.002
3812.0,-0.002
3811.0,-0.002
3810.0,-0.0019
3809.0,-0.0019
3808.0,-0.002
3807.0,-0.0021
3806.0,-0.002
3805.0,-0.0019
3804.0,-0.0019
3803.0,-0.002
3802.0,-0.0021
3801.0,-0.002
3800.0,-0.002
3799.0,-0.002
3798.0,-0.002
3797.0,-0.002
3796.0,-0.0019
3795.0,-0.0018
3794.0,-0.0018
3793.0,-0.0019
3792.0,-0.0019
3791.0,-0.0019
3790.0,-0.0019
3789.0,-0.0019
3788.0,-0.0019
3787.0,-0.0019
3786.0,-0.0019
3785.0,-0.0019
3784.0,-0.0019
3783.0,-0.0018
3782.0,-0.0018
3781.0,-0.0018
3780.0,-0.0018
3779.0,-0.0018
3778.0,-0.0018
3777.0,-0.0018
3776.0,-0.0019
3775.0,-0.0019
3774.0,-0.0019
3773.0,-0.0019
3772.0,-0.0019
3771.0,-0.002
3770.0,-0.0019
3769.0,-0.0018
3768.0,-0.0018
3767.0,-0.0018
3766.0,-0.0018
3765.0,-0.0018
3764.0,-0.0017
3763.0,-0.0016
3762.0,-0.0016
3761.0,-0.0017
3760.0,-0.0017
3759.0,-0.0017
3758.0,-0.0017
3757.0,-0.0017
3756.0,-0.0017
3755.0,-0.0016
3754.0,-0.0017
3753.0,-0.0018
3752.0,-0.0018
3751.0,-0.0018
3750.0,-0.0019
3749.0,-0.002
3748.0,-0.0019
3747.0,-0.0019
3746.0,-0.0019
3745.0,-0.0019
3744.0,-0.0019
3743.0,-0.0018
3742.0,-0.0019
3741.0,-0.002
3740.0,-0.0021
3739.0,-0.0021
3738.0,-0.0021
3737.0,-0.0022
3736.0,-0.0022
3735.0,-0.0022
3734.0,-0.0023
3733.0,-0.0026
3732.0,-0.0028
3731.0,-0.0029
3730.0,-0.0029
3729.0,-0.0028
3728.0,-0.0027
3727.0,-0.0026
3726.0,-0.0025
3725.0,-0.0024
3724.0,-0.0024
3723.0,-0.0024
3722.0,-0.0024
3721.0,-0.0023
3720.0,-0.0023
3719.0,-0.0023
3718.0,-0.0022
3717.0,-0.0021
3716.0,-0.002
3715.0,-0.0019
3714.0,-0.0021
3713.0,-0.0023
3712.0,-0.0023
3711.0,-0.0022
3710.0,-0.0021
3709.0,-0.0021
3708.0,-0.0022
3707.0,-0.0023
3706.0,-0.0023
3705.0,-0.0023
3704.0,-0.0024
3703.0,-0.0024
3702.0,-0.0025
3701.0,-0.0025
3700.0,-0.0024
3699.0,-0.0023
3698.0,-0.0023
3697.0,-0.0023
3696.0,-0.0022
3695.0,-0.002
3694.0,-0.0019
3693.0,-0.0018
3692.0,-0.0017
3691.0,-0.0016
3690.0,-0.0015
3689.0,-0.0015
3688.0,-0.0014
3687.0,-0.0014
3686.0,-0.0014
3685.0,-0.0015
3684.0,-0.0015
3683.0,-0.0014
3682.0,-0.0014
3681.0,-0.0014
3680.0,-0.0013
3679.0,-0.0011
3678.0,-0.0009
3677.0,-0.0008
3676.0,-0.0007
3675.0,-0.0007
3674.0,-0.0006
3673.0,-0.0006
3672.0,-0.0007
3671.0,-0.0007
3670.0,-0.0006
3669.0,-0.0005
3668.0,-0.0004
3667.0,-0.0005
3666.0,-0.0005
3665.0,-0.0005
3664.0,-0.0006
3663.0,-0.0006
3662.0,-0.0006
3661.0,-0.0006
3660.0,-0.0006
3659.0,-0.0005
3658.0,-0.0004
3657.0,-0.0003
3656.0,-0.0002
3655.0,0.0001
3654.0,0.0003
3653.0,0.0005
3652.0,0.0006
3651.0,0.0005
3650.0,0.0005
3649.0,0.0004
3648.0,0.0002
3647.0,0.0001
3646.0,0.0
3645.0,-0.0
3644.0,-0.0001
3643.0,-0.0002
3642.0,-0.0003
3641.0,-0.0004
3640.0,-0.0004
3639.0,-0.0005
3638.0,-0.0005
3637.0,-0.0005
3636.0,-0.0007
3635.0,-0.0009
3634.0,-0.0009
3633.0,-0.0009
3632.0,-0.0008
3631.0,-0.0009
3630.0,-0.001
3629.0,-0.001
3628.0,-0.001
3627.0,-0.0011
3626.0,-0.0012
3625.0,-0.0012
3624.0,-0.0011
3623.0,-0.0009
3622.0,-0.0007
3621.0,-0.0005
3620.0,-0.0005
3619.0,-0.0005
3618.0,-0.0005
3617.0,-0.0005
3616.0,-0.0006
3615.0,-0.0007
3614.0,-0.0008
3613.0,-0.0008
3612.0,-0.0007
3611.0,-0.0007
3610.0,-0.0007
3609.0,-0.0008
3608.0,-0.0007
3607.0,-0.0007
3606.0,-0.0008
3605.0,-0.0008
3604.0,-0.0008
3603.0,-0.0008
3602.0,-0.0008
3601.0,-0.0007
3600.0,-0.0006
3599.0,-0.0006
3598.0,-0.0005
3597.0,-0.0004
3596.0,-0.0005
3595.0,-0.0005
3594.0,-0.0005
3593.0,-0.0006
3592.0,-0.0005
3591.0,-0.0005
3590.0,-0.0003
3589.0,-0.0002
3588.0,0.0
3587.0,0.0002
3586.0,0.0002
3585.0,0.0002
3584.0,0.0002
3583.0,0.0003
3582.0,0.0004
3581.0,0.0005
3580.0,0.0005
3579.0,0.0004
3578.0,0.0004
3577.0,0.0004
3576.0,0.0004
3575.0,0.0005
3574.0,0.0005
3573.0,0.0005
3572.0,0.0006
3571.0,0.0006
3570.0,0.0007
3569.0,0.0007
3568.0,0.0008
3567.0,0.001
3566.0,0.0011
3565.0,0.0011
3564.0,0.001
3563.0,0.0009
3562.0,0.0009
3561.0,0.0009
3560.0,0.001
3559.0,0.001
3558.0,0.001
3557.0,0.001
3556.0,0.001
3555.0,0.001
3554.0,0.0011
3553.0,0.0012
3552.0,0.0012
3551.0,0.0012
3550.0,0.0011
3549.0,0.001
3548.0,0.001
3547.0,0.001
3546.0,0.0011
3545.0,0.0012
3544.0,0.0013
3543.0,0.0014
3542.0,0.0014
3541.0,0.0015
3540.0,0.0014
3539.0,0.0014
3538.0,0.0014
3537.0,0.0014
3536.0,0.0015
3535.0,0.0015
3534.0,0.0014
3533.0,0.0015
3532.0,0.0015
3531.0,0.0017
3530.0,0.0018
3529.0,0.0018
3528.0,0.0018
3527.0,0.0019
3526.0,0.0019
3525.0,0.002
3524.0,0.002
3523.0,0.002
3522.0,0.002
3521.0,0.002
3520.0,0.002
3519.0,0.0021
3518.0,0.0022
3517.0,0.0023
3516.0,0.0024
3515.0,0.0025
3514.0,0.0026
3513.0,0.0026
3512.0,0.0026
3511.0,0.0027
3510.0,0.0029
3509.0,0.003
3508.0,0.0032
3507.0,0.0033
3506.0,0.0034
3505.0,0.0034
3504.0,0.0033
3503.0,0.0032
3502.0,0.0033
3501.0,0.0033
3500.0,0.0034
3499.0,0.0034
3498.0,0.0033
3497.0,0.0033
3496.0,0.0032
3495.0,0.0032
3494.0,0.0031
3493.0,0.003
3492.0,0.0029
3491.0,0.0029
3490.0,0.0029
3489.0,0.0028
3488.0,0.0027
3487.0,0.0027
3486.0,0.0026
3485.0,0.0026
3484.0,0.0025
3483.0,0.0025
3482.0,0.0025
3481.0,0.0024
3480.0,0.0024
3479.0,0.0024
3478.0,0.0024
3477.0,0.0024
3476.0,0.0024
3475.0,0.0023
3474.0,0.0022
3473.0,0.002
3472.0,0.0019
3471.0,0.0019
3470.0,0.002
3469.0,0.002
3468.0,0.002
3467.0,0.002
3466.0,0.0019
3465.0,0.0019
3464.0,0.0018
3463.0,0.0018
3462.0,0.0017
3461.0,0.0017
3460.0,0.0017
3459.0,0.0018
3458.0,0.0019
3457.0,0.0019
3456.0,0.0019
3455.0,0.0019
3454.0,0.0019
3453.0,0.0018
3452.0,0.0018
3451.0,0.0017
3450.0,0.0017
3449.0,0.0018
3448.0,0.0019
3447.0,0.0019
3446.0,0.0019
3445.0,0.0018
3444.0,0.0017
3443.0,0.0015
3442.0,0.0014
3441.0,0.0014
3440.0,0.0014
3439.0,0.0014
3438.0,0.0014
3437.0,0.0015
3436.0,0.0015
3435.0,0.0015
3434.0,0.0016
3433.0,0.0016
3432.0,0.0016
3431.0,0.0016
3430.0,0.0017
3429.0,0.0018
3428.0,0.0019
3427.0,0.0019
3426.0,0.0019
3425.0,0.0019
3424.0,0.0019
3423.0,0.0019
3422.0,0.002
3421.0,0.002
3420.0,0.002
3419.0,0.002
3418.0,0.0019
3417.0,0.0019
3416.0,0.0018
3415.0,0.0018
3414.0,0.0018
3413.0,0.0017
3412.0,0.0017
3411.0,0.0016
3410.0,0.0016
3409.0,0.0016
3408.0,0.0017
3407.0,0.0017
3406.0,0.0018
3405.0,0.0018
3404.0,0.0019
3403.0,0.0019
3402.0,0.0019
3401.0,0.0019
3400.0,0.002
3399.0,0.002
3398.0,0.002
3397.0,0.002
3396.0,0.002
3395.0,0.0021
3394.0,0.0021
3393.0,0.0021
3392.0,0.002
3391.0,0.0019
3390.0,0.0018
3389.0,0.0017
3388.0,0.0017
3387.0,0.0016
3386.0,0.0016
3385.0,0.0016
3384.0,0.0017
3383.0,0.0018
3382.0,0.0019
3381.0,0.0018
3380.0,0.0018
3379.0,0.0017
3378.0,0.0017
3377.0,0.0017
3376.0,0.0017
3375.0,0.0019
3374.0,0.002
3373.0,0.0021
3372.0,0.0022
3371.0,0.0021
3370.0,0.002
3369.0,0.0019
3368.0,0.0019
3367.0,0.0018
3366.0,0.0019
3365.0,0.0019
3364.0,0.0019
3363.0,0.0019
3362.0,0.002
3361.0,0.002
3360.0,0.002
3359.0,0.0019
3358.0,0.0018
3357.0,0.0018
3356.0,0.0018
3355.0,0.0018
3354.0,0.0019
3353.0,0.0019
3352.0,0.0019
3351.0,0.002
3350.0,0.0021
3349.0,0.002
3348.0,0.0019
3347.0,0.0018
3346.0,0.0016
3345.0,0.0015
3344.0,0.0015
3343.0,0.0015
3342.0,0.0015
3341.0,0.0015
3340.0,0.0015
3339.0,0.0016
3338.0,0.0016
3337.0,0.0016
3336.0,0.0016
3335.0,0.0015
3334.0,0.0015
3333.0,0.0014
3332.0,0.0014
3331.0,0.0014
3330.0,0.0014
3329.0,0.0015
3328.0,0.0016
3327.0,0.0017
3326.0,0.0018
3325.0,0.0019
3324.0,0.002
3323.0,0.0021
3322.0,0.002
3321.0,0.0019
3320.0,0.0018
3319.0,0.0017
3318.0,0.0016
3317.0,0.0016
3316.0,0.0015
3315.0,0.0015
3314.0,0.0015
3313.0,0.0015
3312.0,0.0016
3311.0,0.0016
3310.0,0.0015
3309.0,0.0015
3308.0,0.0015
3307.0,0.0016
3306.0,0.0016
3305.0,0.0016
3304.0,0.0016
3303.0,0.0015
3302.0,0.0015
3301.0,0.0014
3300.0,0.0015
3299.0,0.0016
3298.0,0.0017
3297.0,0.0018
3296.0,0.0018
3295.0,0.0018
3294.0,0.0018
3293.0,0.0017
3292.0,0.0016
3291.0,0.0016
3290.0,0.0016
3289.0,0.0016
3288.0,0.0017
3287.0,0.0017
3286.0,0.0016
3285.0,0.0015
3284.0,0.0014
3283.0,0.0014
3282.0,0.0014
3281.0,0.0014
3280.0,0.0014
3279.0,0.0014
3278.0,0.0013
3277.0,0.0014
3276.0,0.0014
3275.0,0.0015
3274.0,0.0016
3273.0,0.0016
3272.0,0.0016
3271.0,0.0015
3270.0,0.0015
3269.0,0.0015
3268.0,0.0015
3267.0,0.0015
3266.0,0.0015
3265.0,0.0015
3264.0,0.0015
3263.0,0.0015
3262.0,0.0015
3261.0,0.0016
3260.0,0.0017
3259.0,0.0017
3258.0,0.0017
3257.0,0.0016
3256.0,0.0015
3255.0,0.0014
3254.0,0.0013
3253.0,0.0013
3252.0,0.0013
3251.0,0.0014
3250.0,0.0014
3249.0,0.0014
3248.0,0.0014
3247.0,0.0014
3246.0,0.0014
3245.0,0.0014
3244.0,0.0014
3243.0,0.0013
3242.0,0.0013
3241.0,0.0013
3240.0,0.0014
3239.0,0.0015
3238.0,0.0016
3237.0,0.0017
3236.0,0.0017
3235.0,0.0016
3234.0,0.0015
3233.0,0.0014
3232.0,0.0014
3231.0,0.0013
3230.0,0.0013
3229.0,0.0014
3228.0,0.0013
3227.0,0.0013
3226.0,0.0012
3225.0,0.0011
3224.0,0.001
3223.0,0.0011
3222.0,0.0011
3221.0,0.0012
3220.0,0.0012
3219.0,0.0012
3218.0,0.0012
3217.0,0.0013
3216.0,0.0014
3215.0,0.0014
3214.0,0.0014
3213.0,0.0014
3212.0,0.0014
3211.0,0.0014
3210.0,0.0014
3209.0,0.0013
3208.0,0.0012
3207.0,0.0012
3206.0,0.0012
3205.0,0.0012
3204.0,0.0013
3203.0,0.0014
3202.0,0.0014
3201.0,0.0013
3200.0,0.0012
3199.0,0.0011
3198.0,0.0011
3197.0,0.0011
3196.0,0.0011
3195.0,0.0011
3194.0,0.0009
3193.0,0.0008
3192.0,0.0008
3191.0,0.0008
3190.0,0.0009
3189.0,0.001
3188.0,0.001
3187.0,0.001
3186.0,0.001
3185.0,0.0011
3184.0,0.0011
3183.0,0.0011
3182.0,0.0011
3181.0,0.001
3180.0,0.0009
3179.0,0.0008
3178.0,0.0008
3177.0,0.0008
3176.0,0.0008
3175.0,0.0008
3174.0,0.0008
3173.0,0.0007
3172.0,0.0008
3171.0,0.0008
3170.0,0.0008
3169.0,0.0008
3168.0,0.0007
3167.0,0.0006
3166.0,0.0006
3165.0,0.0005
3164.0,0.0005
3163.0,0.0006
3162.0,0.0007
3161.0,0.0007
3160.0,0.0007
3159.0,0.0006
3158.0,0.0005
3157.0,0.0005
3156.0,0.0005
3155.0,0.0005
3154.0,0.0006
3153.0,0.0006
3152.0,0.0006
3151.0,0.0005
3150.0,0.0005
3149.0,0.0005
3148.0,0.0005
3147.0,0.0005
3146.0,0.0005
3145.0,0.0005
3144.0,0.0005
3143.0,0.0006
3142.0,0.0006
3141.0,0.0006
3140.0,0.0006
3139.0,0.0006
3138.0,0.0005
3137.0,0.0005
3136.0,0.0006
3135.0,0.0007
3134.0,0.0008
3133.0,0.0008
3132.0,0.0008
3131.0,0.0007
3130.0,0.0006
3129.0,0.0005
3128.0,0.0005
3127.0,0.0004
3126.0,0.0004
3125.0,0.0003
3124.0,0.0003
3123.0,0.0003
3122.0,0.0004
3121.0,0.0004
3120.0,0.0003
3119.0,0.0003
3118.0,0.0002
3117.0,0.0003
3116.0,0.0003
3115.0,0.0003
3114.0,0.0004
3113.0,0.0004
3112.0,0.0004
3111.0,0.0004
3110.0,0.0004
3109.0,0.0003
3108.0,0.0002
3107.0,0.0002
3106.0,0.0001
3105.0,0.0001
3104.0,0.0001
3103.0,0.0001
3102.0,0.0001
3101.0,0.0001
3100.0,0.0001
3099.0,0.0002
3098.0,0.0002
3097.0,0.0003
3096.0,0.0003
3095.0,0.0002
3094.0,0.0001
3093.0,0.0001
3092.0,0.0001
3091.0,0.0002
3090.0,0.0002
3089.0,0.0001
3088.0,0.0001
3087.0,0.0001
3086.0,0.0001
3085.0,0.0001
3084.0,0.0001
3083.0,0.0001
3082.0,0.0002
3081.0,0.0001
3080.0,0.0001
3079.0,0.0001
3078.0,0.0001
3077.0,0.0001
3076.0,0.0001
3075.0,0.0001
3074.0,0.0001
3073.0,0.0001
3072.0,0.0001
3071.0,0.0
3070.0,-0.0001
3069.0,-0.0001
3068.0,-0.0002
3067.0,-0.0001
3066.0,-0.0001
3065.0,-0.0001
3064.0,-0.0001
3063.0,-0.0001
3062.0,-0.0001
3061.0,-0.0001
3060.0,-0.0001
3059.0,-0.0001
3058.0,-0.0001
3057.0,-0.0
3056.0,-0.0
3055.0,-0.0
3054.0,-0.0
3053.0,-0.0001
3052.0,-0.0001
3051.0,-0.0001
3050.0,-0.0002
3049.0,-0.0002
3048.0,-0.0002
3047.0,-0.0002
3046.0,-0.0003
3045.0,-0.0002
3044.0,-0.0001
3043.0,-0.0001
3042.0,-0.0
3041.0,-0.0
3040.0,-0.0
3039.0,-0.0
3038.0,-0.0
3037.0,-0.0
3036.0,-0.0
3035.0,0.0
3034.0,0.0001
3033.0,0.0002
3032.0,0.0003
3031.0,0.0003
3030.0,0.0003
3029.0,0.0004
3028.0,0.0005
3027.0,0.0007
3026.0,0.0009
3025.0,0.0011
3024.0,0.0013
3023.0,0.0015
3022.0,0.0018
3021.0,0.0021
3020.0,0.0025
3019.0,0.0029
3018.0,0.0033
3017.0,0.0038
3016.0,0.0043
3015.0,0.0049
3014.0,0.0054
3013.0,0.0061
3012.0,0.0067
3011.0,0.0075
3010.0,0.0083
3009.0,0.0091
3008.0,0.01
3007.0,0.0109
3006.0,0.0119
3005.0,0.0129
3004.0,0.0139
3003.0,0.0149
3002.0,0.0159
3001.0,0.0169
3000.0,0.0178
2999.0,0.0186
2998.0,0.0192
2997.0,0.0196
2996.0,0.0197
2995.0,0.0196
2994.0,0.0192
2993.0,0.0186
2992.0,0.0178
2991.0,0.0168
2990.0,0.0157
2989.0,0.0146
2988.0,0.0135
2987.0,0.0124
2986.0,0.0114
2985.0,0.0106
2984.0,0.0099
2983.0,0.0094
2982.0,0.0089
2981.0,0.0085
2980.0,0.0082
2979.0,0.0079
2978.0,0.0076
2977.0,0.0074
2976.0,0.0073
2975.0,0.0072
2974.0,0.0071
2973.0,0.007
2972.0,0.007
2971.0,0.007
2970.0,0.0071
2969.0,0.0072
2968.0,0.0073
2967.0,0.0075
2966.0,0.0076
2965.0,0.0078
2964.0,0.0079
2963.0,0.0081
2962.0,0.0083
2961.0,0.0085
2960.0,0.0087
2959.0,0.0091
2958.0,0.0094
2957.0,0.0098
2956.0,0.0102
2955.0,0.0106
2954.0,0.0112
2953.0,0.0118
2952.0,0.0125
2951.0,0.0132
2950.0,0.0139
2949.0,0.0146
2948.0,0.0152
2947.0,0.0156
2946.0,0.0159
2945.0,0.0158
2944.0,0.0156
2943.0,0.0151
2942.0,0.0144
2941.0,0.0137
2940.0,0.0128
2939.0,0.0119
2938.0,0.011
2937.0,0.0102
2936.0,0.0095
2935.0,0.0089
2934.0,0.0084
2933.0,0.008
2932.0,0.0075
2931.0,0.0072
2930.0,0.0069
2929.0,0.0066
2928.0,0.0064
2927.0,0.0061
2926.0,0.0058
2925.0,0.0056
2924.0,0.0054
2923.0,0.0053
2922.0,0.0051
2921.0,0.005
2920.0,0.0049
2919.0,0.0047
2918.0,0.0045
2917.0,0.0044
2916.0,0.0043
2915.0,0.0042
2914.0,0.0041
2913.0,0.004
2912.0,0.0039
2911.0,0.0039
2910.0,0.0038
2909.0,0.0038
2908.0,0.0038
2907.0,0.0038
2906.0,0.0038
2905.0,0.0038
2904.0,0.0037
2903.0,0.0036
2902.0,0.0036
2901.0,0.0036
2900.0,0.0037
2899.0,0.0038
2898.0,0.0037
2897.0,0.0036
2896.0,0.0035
2895.0,0.0034
2894.0,0.0033
2893.0,0.0033
2892.0,0.0034
2891.0,0.0034
2890.0,0.0035
2889.0,0.0036
2888.0,0.0038
2887.0,0.004
2886.0,0.0041
2885.0,0.0043
2884.0,0.0045
2883.0,0.0046
2882.0,0.0048
2881.0,0.0048
2880.0,0.0048
2879.0,0.0047
2878.0,0.0045
2877.0,0.0043
2876.0,0.0041
2875.0,0.0038
2874.0,0.0035
2873.0,0.0033
2872.0,0.0031
2871.0,0.0029
2870.0,0.0027
2869.0,0.0025
2868.0,0.0023
2867.0,0.0021
2866.0,0.002
2865.0,0.0019
2864.0,0.0018
2863.0,0.0017
2862.0,0.0017
2861.0,0.0017
2860.0,0.0017
2859.0,0.0017
2858.0,0.0017
2857.0,0.0016
2856.0,0.0016
2855.0,0.0015
2854.0,0.0015
2853.0,0.0015
2852.0,0.0015
2851.0,0.0015
2850.0,0.0014
2849.0,0.0014
2848.0,0.0013
2847.0,0.0013
2846.0,0.0012
2845.0,0.0012
2844.0,0.0012
2843.0,0.0012
2842.0,0.0012
2841.0,0.0011
2840.0,0.0011
2839.0,0.001
2838.0,0.001
2837.0,0.0009
2836.0,0.0009
2835.0,0.001
2834.0,0.001
2833.0,0.001
2832.0,0.001
2831.0,0.0009
2830.0,0.0009
2829.0,0.0009
2828.0,0.0008
2827.0,0.0008
2826.0,0.0008
2825.0,0.0008
2824.0,0.0008
2823.0,0.0008
2822.0,0.0008
2821.0,0.0008
2820.0,0.0007
2819.0,0.0007
2818.0,0.0007
2817.0,0.0006
2816.0,0.0006
2815.0,0.0006
2814.0,0.0005
2813.0,0.0005
2812.0,0.0004
2811.0,0.0004
2810.0,0.0004
2809.0,0.0004
2808.0,0.0004
2807.0,0.0003
2806.0,0.0003
2805.0,0.0004
2804.0,0.0004
2803.0,0.0004
2802.0,0.0004
2801.0,0.0003
2800.0,0.0002
2799.0,0.0002
2798.0,0.0002
2797.0,0.0001
2796.0,0.0001
2795.0,-0.0
2794.0,-0.0001
2793.0,-0.0001
2792.0,-0.0001
2791.0,-0.0001
2790.0,-0.0001
2789.0,-0.0001
2788.0,-0.0001
2787.0,-0.0001
2786.0,-0.0001
2785.0,-0.0002
2784.0,-0.0003
2783.0,-0.0003
2782.0,-0.0004
2781.0,-0.0003
2780.0,-0.0003
2779.0,-0.0002
2778.0,-0.0001
2777.0,-0.0001
2776.0,-0.0001
2775.0,-0.0002
2774.0,-0.0002
2773.0,-0.0003
2772.0,-0.0004
2771.0,-0.0004
2770.0,-0.0004
2769.0,-0.0004
2768.0,-0.0003
2767.0,-0.0003
2766.0,-0.0003
2765.0,-0.0002
2764.0,-0.0003
2763.0,-0.0003
2762.0,-0.0003
2761.0,-0.0003
2760.0,-0.0003
2759.0,-0.0003
2758.0,-0.0003
2757.0,-0.0003
2756.0,-0.0003
2755.0,-0.0003
2754.0,-0.0003
2753.0,-0.0003
2752.0,-0.0002
2751.0,-0.0002
2750.0,-0.0002
2749.0,-0.0003
2748.0,-0.0003
2747.0,-0.0004
2746.0,-0.0004
2745.0,-0.0005
2744.0,-0.0005
2743.0,-0.0004
2742.0,-0.0004
2741.0,-0.0003
2740.0,-0.0002
2739.0,-0.0003
2738.0,-0.0003
2737.0,-0.0004
2736.0,-0.0003
2735.0,-0.0003
2734.0,-0.0003
2733.0,-0.0003
2732.0,-0.0004
2731.0,-0.0005
2730.0,-0.0005
2729.0,-0.0004
2728.0,-0.0004
2727.0,-0.0004
2726.0,-0.0004
2725.0,-0.0004
2724.0,-0.0004
2723.0,-0.0004
2722.0,-0.0005
2721.0,-0.0006
2720.0,-0.0006
2719.0,-0.0005
2718.0,-0.0005
2717.0,-0.0005
2716.0,-0.0005
2715.0,-0.0005
2714.0,-0.0005
2713.0,-0.0005
2712.0,-0.0005
2711.0,-0.0005
2710.0,-0.0005
2709.0,-0.0005
2708.0,-0.0005
2707.0,-0.0005
2706.0,-0.0005
2705.0,-0.0005
2704.0,-0.0005
2703.0,-0.0005
2702.0,-0.0005
2701.0,-0.0005
2700.0,-0.0004
2699.0,-0.0003
2698.0,-0.0003
2697.0,-0.0004
2696.0,-0.0004
2695.0,-0.0004
2694.0,-0.0004
2693.0,-0.0004
2692.0,-0.0004
2691.0,-0.0004
2690.0,-0.0004
2689.0,-0.0004
2688.0,-0.0004
2687.0,-0.0004
2686.0,-0.0004
2685.0,-0.0004
2684.0,-0.0004
2683.0,-0.0003
2682.0,-0.0003
2681.0,-0.0003
2680.0,-0.0003
2679.0,-0.0002
2678.0,-0.0003
2677.0,-0.0003
2676.0,-0.0003
2675.0,-0.0004
2674.0,-0.0005
2673.0,-0.0005
2672.0,-0.0005
2671.0,-0.0005
2670.0,-0.0004
2669.0,-0.0003
2668.0,-0.0003
2667.0,-0.0003
2666.0,-0.0004
2665.0,-0.0005
2664.0,-0.0005
2663.0,-0.0005
2662.0,-0.0005
2661.0,-0.0004
2660.0,-0.0004
2659.0,-0.0004
2658.0,-0.0004
2657.0,-0.0005
2656.0,-0.0004
2655.0,-0.0004
2654.0,-0.0003
2653.0,-0.0002
2652.0,-0.0002
2651.0,-0.0003
2650.0,-0.0003
2649.0,-0.0004
2648.0,-0.0004
2647.0,-0.0004
2646.0,-0.0004
2645.0,-0.0004
2644.0,-0.0003
2643.0,-0.0003
2642.0,-0.0003
2641.0,-0.0003
2640.0,-0.0003
2639.0,-0.0004
2638.0,-0.0004
2637.0,-0.0004
2636.0,-0.0004
2635.0,-0.0004
2634.0,-0.0004
2633.0,-0.0004
2632.0,-0.0004
2631.0,-0.0004
2630.0,-0.0005
2629.0,-0.0006
2628.0,-0.0007
2627.0,-0.0007
2626.0,-0.0006
2625.0,-0.0005
2624.0,-0.0004
2623.0,-0.0004
2622.0,-0.0005
2621.0,-0.0006
2620.0,-0.0007
2619.0,-0.0008
2618.0,-0.0008
2617.0,-0.0007
2616.0,-0.0007
2615.0,-0.0006
2614.0,-0.0007
2613.0,-0.0007
2612.0,-0.0008
2611.0,-0.0008
2610.0,-0.0008
2609.0,-0.0008
2608.0,-0.0007
2607.0,-0.0007
2606.0,-0.0007
2605.0,-0.0007
2604.0,-0.0007
2603.0,-0.0007
2602.0,-0.0007
2601.0,-0.0007
2600.0,-0.0007
2599.0,-0.0007
2598.0,-0.0007
2597.0,-0.0007
2596.0,-0.0007
2595.0,-0.0007
2594.0,-0.0007
2593.0,-0.0008
2592.0,-0.0008
2591.0,-0.0008
2590.0,-0.0008
2589.0,-0.0007
2588.0,-0.0007
2587.0,-0.0007
2586.0,-0.0007
2585.0,-0.0006
2584.0,-0.0006
2583.0,-0.0006
2582.0,-0.0006
2581.0,-0.0006
2580.0,-0.0006
2579.0,-0.0006
2578.0,-0.0006
2577.0,-0.0007
2576.0,-0.0007
2575.0,-0.0008
2574.0,-0.0009
2573.0,-0.0009
2572.0,-0.0009
2571.0,-0.0009
2570.0,-0.0008
2569.0,-0.0008
2568.0,-0.0008
2567.0,-0.0008
2566.0,-0.0008
2565.0,-0.0008
2564.0,-0.0008
2563.0,-0.0009
2562.0,-0.001
2561.0,-0.001
2560.0,-0.001
2559.0,-0.001
2558.0,-0.001
2557.0,-0.001
2556.0,-0.001
2555.0,-0.001
2554.0,-0.0011
2553.0,-0.001
2552.0,-0.001
2551.0,-0.0009
2550.0,-0.001
2549.0,-0.001
2548.0,-0.001
2547.0,-0.001
2546.0,-0.0011
2545.0,-0.0011
2544.0,-0.0011
2543.0,-0.0011
2542.0,-0.001
2541.0,-0.001
2540.0,-0.001
2539.0,-0.001
2538.0,-0.0011
2537.0,-0.0011
2536.0,-0.0011
2535.0,-0.0011
2534.0,-0.0011
2533.0,-0.001
2532.0,-0.001
2531.0,-0.001
2530.0,-0.001
2529.0,-0.001
2528.0,-0.001
2527.0,-0.001
2526.0,-0.001
2525.0,-0.0011
2524.0,-0.0011
2523.0,-0.0012
2522.0,-0.0012
2521.0,-0.0012
2520.0,-0.0012
2519.0,-0.0011
2518.0,-0.0011
2517.0,-0.0011
2516.0,-0.0011
2515.0,-0.0011
2514.0,-0.0011
2513.0,-0.0011
2512.0,-0.0011
2511.0,-0.0012
2510.0,-0.0012
2509.0,-0.0012
2508.0,-0.0011
2507.0,-0.0011
2506.0,-0.0011
2505.0,-0.0011
2504.0,-0.0011
2503.0,-0.0012
2502.0,-0.0012
2501.0,-0.0011
2500.0,-0.0011
2499.0,-0.0011
2498.0,-0.0011
2497.0,-0.0011
2496.0,-0.0011
2495.0,-0.0011
2494.0,-0.0011
2493.0,-0.0012
2492.0,-0.0012
2491.0,-0.0012
2490.0,-0.0012
2489.0,-0.0012
2488.0,-0.0012
2487.0,-0.0012
2486.0,-0.0013
2485.0,-0.0013
2484.0,-0.0013
2483.0,-0.0013
2482.0,-0.0013
2481.0,-0.0014
2480.0,-0.0014
2479.0,-0.0014
2478.0,-0.0014
2477.0,-0.0013
2476.0,-0.0013
2475.0,-0.0013
2474.0,-0.0013
2473.0,-0.0013
2472.0,-0.0013
2471.0,-0.0014
2470.0,-0.0014
2469.0,-0.0014
2468.0,-0.0014
2467.0,-0.0014
2466.0,-0.0014
2465.0,-0.0015
2464.0,-0.0015
2463.0,-0.0015
2462.0,-0.0016
2461.0,-0.0015
2460.0,-0.0015
2459.0,-0.0015
2458.0,-0.0015
2457.0,-0.0015
2456.0,-0.0016
2455.0,-0.0016
2454.0,-0.0016
2453.0,-0.0016
2452.0,-0.0015
2451.0,-0.0015
2450.0,-0.0015
2449.0,-0.0015
2448.0,-0.0015
2447.0,-0.0015
2446.0,-0.0015
2445.0,-0.0015
2444.0,-0.0015
2443.0,-0.0015
2442.0,-0.0015
2441.0,-0.0015
2440.0,-0.0014
2439.0,-0.0014
2438.0,-0.0013
2437.0,-0.0013
2436.0,-0.0013
2435.0,-0.0013
2434.0,-0.0012
2433.0,-0.0012
2432.0,-0.0011
2431.0,-0.0011
2430.0,-0.001
2429.0,-0.001
2428.0,-0.001
2427.0,-0.001
2426.0,-0.0009
2425.0,-0.0009
2424.0,-0.0009
2423.0,-0.0009
2422.0,-0.0009
2421.0,-0.0009
2420.0,-0.0008
2419.0,-0.0008
2418.0,-0.0008
2417.0,-0.0009
2416.0,-0.0009
2415.0,-0.001
2414.0,-0.001
2413.0,-0.001
2412.0,-0.0009
2411.0,-0.0009
2410.0,-0.0009
2409.0,-0.0009
2408.0,-0.0009
2407.0,-0.0009
2406.0,-0.0009
2405.0,-0.0009
2404.0,-0.0008
2403.0,-0.0008
2402.0,-0.0008
2401.0,-0.0008
2400.0,-0.0007
2399.0,-0.0007
2398.0,-0.0007
2397.0,-0.0007
2396.0,-0.0007
2395.0,-0.0008
2394.0,-0.0009
2393.0,-0.0009
2392.0,-0.0009
2391.0,-0.001
2390.0,-0.001
2389.0,-0.001
2388.0,-0.001
2387.0,-0.0011
2386.0,-0.0013
2385.0,-0.0017
2384.0,-0.002
2383.0,-0.0023
2382.0,-0.0026
2381.0,-0.0029
2380.0,-0.0031
2379.0,-0.0034
2378.0,-0.0036
2377.0,-0.0037
2376.0,-0.0037
2375.0,-0.0037
2374.0,-0.0038
2373.0,-0.0039
2372.0,-0.004
2371.0,-0.0042
2370.0,-0.0046
2369.0,-0.0049
2368.0,-0.0049
2367.0,-0.0048
2366.0,-0.0048
2365.0,-0.0049
2364.0,-0.0049
2363.0,-0.0051
2362.0,-0.005
2361.0,-0.0044
2360.0,-0.004
2359.0,-0.0047
2358.0,-0.0061
2357.0,-0.0072
2356.0,-0.0077
2355.0,-0.0081
2354.0,-0.0083
2353.0,-0.0078
2352.0,-0.0072
2351.0,-0.0068
2350.0,-0.0067
2349.0,-0.0067
2348.0,-0.0068
2347.0,-0.0069
2346.0,-0.0069
2345.0,-0.0066
2344.0,-0.0062
2343.0,-0.0062
2342.0,-0.0067
2341.0,-0.0075
2340.0,-0.0082
2339.0,-0.009
2338.0,-0.0095
2337.0,-0.0097
2336.0,-0.0094
2335.0,-0.0091
2334.0,-0.0087
2333.0,-0.008
2332.0,-0.007
2331.0,-0.0062
2330.0,-0.0061
2329.0,-0.0061
2328.0,-0.006
2327.0,-0.0059
2326.0,-0.0057
2325.0,-0.0055
2324.0,-0.0054
2323.0,-0.0055
2322.0,-0.0054
2321.0,-0.0049
2320.0,-0.0043
2319.0,-0.0038
2318.0,-0.0035
2317.0,-0.0034
2316.0,-0.0033
2315.0,-0.0034
2314.0,-0.0036
2313.0,-0.0038
2312.0,-0.0039
2311.0,-0.004
2310.0,-0.004
2309.0,-0.004
2308.0,-0.0039
2307.0,-0.0038
2306.0,-0.0037
2305.0,-0.0037
2304.0,-0.0036
2303.0,-0.0035
2302.0,-0.0035
2301.0,-0.0034
2300.0,-0.0033
2299.0,-0.0033
2298.0,-0.0032
2297.0,-0.0031
2296.0,-0.003
2295.0,-0.0029
2294.0,-0.0029
2293.0,-0.0029
2292.0,-0.0029
2291.0,-0.0029
2290.0,-0.0029
2289.0,-0.0028
2288.0,-0.0027
2287.0,-0.0026
2286.0,-0.0025
2285.0,-0.0024
2284.0,-0.0025
2283.0,-0.0026
2282.0,-0.0027
2281.0,-0.0027
2280.0,-0.0027
2279.0,-0.0027
2278.0,-0.0027
2277.0,-0.0027
2276.0,-0.0028
2275.0,-0.0029
2274.0,-0.0029
2273.0,-0.0029
2272.0,-0.0029
2271.0,-0.0029
2270.0,-0.0029
2269.0,-0.0029
2268.0,-0.0029
2267.0,-0.0029
2266.0,-0.003
2265.0,-0.003
2264.0,-0.003
2263.0,-0.003
2262.0,-0.003
2261.0,-0.003
2260.0,-0.0029
2259.0,-0.0029
2258.0,-0.0028
2257.0,-0.0028
2256.0,-0.0028
2255.0,-0.0028
2254.0,-0.0028
2253.0,-0.0028
2252.0,-0.0027
2251.0,-0.0027
2250.0,-0.0027
2249.0,-0.0027
2248.0,-0.0027
2247.0,-0.0027
2246.0,-0.0028
2245.0,-0.0028
2244.0,-0.0028
2243.0,-0.0029
2242.0,-0.0029
2241.0,-0.0028
2240.0,-0.0028
2239.0,-0.0028
2238.0,-0.0029
2237.0,-0.0029
2236.0,-0.003
2235.0,-0.003
2234.0,-0.003
2233.0,-0.003
2232.0,-0.003
2231.0,-0.003
2230.0,-0.003
2229.0,-0.003
2228.0,-0.0031
2227.0,-0.0031
2226.0,-0.0032
2225.0,-0.0033
2224.0,-0.0033
2223.0,-0.0033
2222.0,-0.0032
2221.0,-0.0032
2220.0,-0.0032
2219.0,-0.0032
2218.0,-0.0033
2217.0,-0.0033
2216.0,-0.0033
2215.0,-0.0033
2214.0,-0.0034
2213.0,-0.0034
2212.0,-0.0034
2211.0,-0.0033
2210.0,-0.0033
2209.0,-0.0034
2208.0,-0.0034
2207.0,-0.0035
2206.0,-0.0036
2205.0,-0.0036
2204.0,-0.0036
2203.0,-0.0036
2202.0,-0.0037
2201.0,-0.0037
2200.0,-0.0037
2199.0,-0.0036
2198.0,-0.0037
2197.0,-0.0037
2196.0,-0.0037
2195.0,-0.0037
2194.0,-0.0037
2193.0,-0.0037
2192.0,-0.0037
2191.0,-0.0037
2190.0,-0.0038
2189.0,-0.0038
2188.0,-0.0038
2187.0,-0.0038
2186.0,-0.0038
2185.0,-0.0037
2184.0,-0.0037
2183.0,-0.0037
2182.0,-0.0037
2181.0,-0.0037
2180.0,-0.0037
2179.0,-0.0037
2178.0,-0.0037
2177.0,-0.0037
2176.0,-0.0037
2175.0,-0.0036
2174.0,-0.0036
2173.0,-0.0036
2172.0,-0.0036
2171.0,-0.0036
2170.0,-0.0037
2169.0,-0.0037
2168.0,-0.0037
2167.0,-0.0037
2166.0,-0.0037
2165.0,-0.0037
2164.0,-0.0038
2163.0,-0.0038
2162.0,-0.0039
2161.0,-0.0039
2160.0,-0.0039
2159.0,-0.0038
2158.0,-0.0038
2157.0,-0.0038
2156.0,-0.0038
2155.0,-0.0038
2154.0,-0.0038
2153.0,-0.0038
2152.0,-0.0039
2151.0,-0.0039
2150.0,-0.0039
2149.0,-0.0039
2148.0,-0.0038
2147.0,-0.0038
2146.0,-0.0037
2145.0,-0.0037
2144.0,-0.0037
2143.0,-0.0037
2142.0,-0.0038
2141.0,-0.0037
2140.0,-0.0037
2139.0,-0.0036
2138.0,-0.0036
2137.0,-0.0036
2136.0,-0.0036
2135.0,-0.0036
2134.0,-0.0036
2133.0,-0.0035
2132.0,-0.0034
2131.0,-0.0034
2130.0,-0.0034
2129.0,-0.0034
2128.0,-0.0034
2127.0,-0.0035
2126.0,-0.0035
2125.0,-0.0035
2124.0,-0.0034
2123.0,-0.0034
2122.0,-0.0034
2121.0,-0.0034
2120.0,-0.0034
2119.0,-0.0034
2118.0,-0.0035
2117.0,-0.0034
2116.0,-0.0034
2115.0,-0.0034
2114.0,-0.0034
2113.0,-0.0034
2112.0,-0.0034
2111.0,-0.0034
2110.0,-0.0035
2109.0,-0.0035
2108.0,-0.0036
2107.0,-0.0036
2106.0,-0.0036
2105.0,-0.0036
2104.0,-0.0036
2103.0,-0.0036
2102.0,-0.0036
2101.0,-0.0035
2100.0,-0.0035
2099.0,-0.0035
2098.0,-0.0035
2097.0,-0.0034
2096.0,-0.0034
2095.0,-0.0033
2094.0,-0.0033
2093.0,-0.0033
2092.0,-0.0033
2091.0,-0.0033
2090.0,-0.0033
2089.0,-0.0032
2088.0,-0.0031
2087.0,-0.0031
2086.0,-0.0031
2085.0,-0.0031
2084.0,-0.0032
2083.0,-0.0032
2082.0,-0.0033
2081.0,-0.0034
2080.0,-0.0034
2079.0,-0.0033
2078.0,-0.0033
2077.0,-0.0033
2076.0,-0.0034
2075.0,-0.0035
2074.0,-0.0036
2073.0,-0.0037
2072.0,-0.0037
2071.0,-0.0037
2070.0,-0.0038
2069.0,-0.0038
2068.0,-0.0038
2067.0,-0.0038
2066.0,-0.0039
2065.0,-0.0039
2064.0,-0.0039
2063.0,-0.004
2062.0,-0.004
2061.0,-0.0041
2060.0,-0.0042
2059.0,-0.0042
2058.0,-0.0043
2057.0,-0.0043
2056.0,-0.0043
2055.0,-0.0044
2054.0,-0.0045
2053.0,-0.0045
2052.0,-0.0046
2051.0,-0.0046
2050.0,-0.0047
2049.0,-0.0047
2048.0,-0.0047
2047.0,-0.0048
2046.0,-0.0049
2045.0,-0.005
2044.0,-0.005
2043.0,-0.005
2042.0,-0.0051
2041.0,-0.0051
2040.0,-0.0052
2039.0,-0.0052
2038.0,-0.0053
2037.0,-0.0053
2036.0,-0.0053
2035.0,-0.0054
2034.0,-0.0054
2033.0,-0.0054
2032.0,-0.0054
2031.0,-0.0054
2030.0,-0.0054
2029.0,-0.0054
2028.0,-0.0054
2027.0,-0.0054
2026.0,-0.0055
2025.0,-0.0056
2024.0,-0.0056
2023.0,-0.0056
2022.0,-0.0056
2021.0,-0.0056
2020.0,-0.0056
2019.0,-0.0055
2018.0,-0.0055
2017.0,-0.0055
2016.0,-0.0055
2015.0,-0.0054
2014.0,-0.0055
2013.0,-0.0054
2012.0,-0.0054
2011.0,-0.0054
2010.0,-0.0054
2009.0,-0.0054
2008.0,-0.0053
2007.0,-0.0053
2006.0,-0.0053
2005.0,-0.0053
2004.0,-0.0053
2003.0,-0.0053
2002.0,-0.0053
2001.0,-0.0053
2000.0,-0.0053
1999.0,-0.0053
1998.0,-0.0054
1997.0,-0.0054
1996.0,-0.0055
1995.0,-0.0055
1994.0,-0.0055
1993.0,-0.0055
1992.0,-0.0055
1991.0,-0.0055
1990.0,-0.0055
1989.0,-0.0055
1988.0,-0.0054
1987.0,-0.0054
1986.0,-0.0055
1985.0,-0.0055
1984.0,-0.0055
1983.0,-0.0055
1982.0,-0.0055
1981.0,-0.0054
1980.0,-0.0054
1979.0,-0.0054
1978.0,-0.0054
1977.0,-0.0054
1976.0,-0.0053
1975.0,-0.0053
1974.0,-0.0053
1973.0,-0.0053
1972.0,-0.0053
1971.0,-0.0053
1970.0,-0.0054
1969.0,-0.0054
1968.0,-0.0054
1967.0,-0.0053
1966.0,-0.0053
1965.0,-0.0053
1964.0,-0.0053
1963.0,-0.0053
1962.0,-0.0053
1961.0,-0.0054
1960.0,-0.0055
1959.0,-0.0056
1958.0,-0.0057
1957.0,-0.0058
1956.0,-0.0058
1955.0,-0.0058
1954.0,-0.0059
1953.0,-0.0059
1952.0,-0.0059
1951.0,-0.006
1950.0,-0.006
1949.0,-0.006
1948.0,-0.0061
1947.0,-0.0061
1946.0,-0.0062
1945.0,-0.0062
1944.0,-0.0062
1943.0,-0.0063
1942.0,-0.0064
1941.0,-0.0065
1940.0,-0.0065
1939.0,-0.0066
1938.0,-0.0067
1937.0,-0.0067
1936.0,-0.0067
1935.0,-0.0067
1934.0,-0.0067
1933.0,-0.0067
1932.0,-0.0067
1931.0,-0.0068
1930.0,-0.0069
1929.0,-0.0069
1928.0,-0.0069
1927.0,-0.0069
1926.0,-0.0069
1925.0,-0.0069
1924.0,-0.0068
1923.0,-0.0067
1922.0,-0.0067
1921.0,-0.0067
1920.0,-0.0067
1919.0,-0.0068
1918.0,-0.0069
1917.0,-0.0069
1916.0,-0.0069
1915.0,-0.0068
1914.0,-0.0068
1913.0,-0.0068
1912.0,-0.0068
1911.0,-0.0068
1910.0,-0.0068
1909.0,-0.0068
1908.0,-0.0068
1907.0,-0.0069
1906.0,-0.0069
1905.0,-0.007
1904.0,-0.007
1903.0,-0.007
1902.0,-0.007
1901.0,-0.0071
1900.0,-0.0071
1899.0,-0.007
1898.0,-0.0071
1897.0,-0.0071
1896.0,-0.007
1895.0,-0.007
1894.0,-0.0071
1893.0,-0.0071
1892.0,-0.007
1891.0,-0.007
1890.0,-0.0071
1889.0,-0.0072
1888.0,-0.0071
1887.0,-0.0071
1886.0,-0.0071
1885.0,-0.0071
1884.0,-0.0071
1883.0,-0.0071
1882.0,-0.0071
1881.0,-0.0072
1880.0,-0.0071
1879.0,-0.0071
1878.0,-0.0071
1877.0,-0.0072
1876.0,-0.0071
1875.0,-0.0071
1874.0,-0.0071
1873.0,-0.0071
1872.0,-0.0069
1871.0,-0.0069
1870.0,-0.007
1869.0,-0.0071
1868.0,-0.0071
1867.0,-0.0071
1866.0,-0.007
1865.0,-0.007
1864.0,-0.0069
1863.0,-0.0068
1862.0,-0.0068
1861.0,-0.0068
1860.0,-0.0067
1859.0,-0.0067
1858.0,-0.0067
1857.0,-0.0067
1856.0,-0.0066
1855.0,-0.0065
1854.0,-0.0065
1853.0,-0.0064
1852.0,-0.0063
1851.0,-0.0062
1850.0,-0.0062
1849.0,-0.0061
1848.0,-0.0059
1847.0,-0.0057
1846.0,-0.0057
1845.0,-0.0056
1844.0,-0.0055
1843.0,-0.0054
1842.0,-0.0053
1841.0,-0.0051
1840.0,-0.0049
1839.0,-0.0047
1838.0,-0.0045
1837.0,-0.0043
1836.0,-0.0041
1835.0,-0.0038
1834.0,-0.0037
1833.0,-0.0034
1832.0,-0.0031
1831.0,-0.0028
1830.0,-0.0026
1829.0,-0.0024
1828.0,-0.0021
1827.0,-0.0019
1826.0,-0.0018
1825.0,-0.0016
1824.0,-0.0013
1823.0,-0.0011
1822.0,-0.001
1821.0,-0.0009
1820.0,-0.0006
1819.0,-0.0004
1818.0,-0.0002
1817.0,-0.0
1816.0,0.0003
1815.0,0.0005
1814.0,0.0007
1813.0,0.0009
1812.0,0.0013
1811.0,0.0016
1810.0,0.0017
1809.0,0.002
1808.0,0.0024
1807.0,0.0026
1806.0,0.0029
1805.0,0.0032
1804.0,0.0037
1803.0,0.0042
1802.0,0.0046
1801.0,0.0051
1800.0,0.0059
1799.0,0.0065
1798.0,0.007
1797.0,0.0077
1796.0,0.0086
1795.0,0.0096
1794.0,0.0106
1793.0,0.0122
1792.0,0.0143
1791.0,0.0164
1790.0,0.0184
1789.0,0.0206
1788.0,0.0233
1787.0,0.0264
1786.0,0.0302
1785.0,0.0348
1784.0,0.0396
1783.0,0.0443
1782.0,0.0494
1781.0,0.0555
1780.0,0.062
1779.0,0.0679
1778.0,0.0733
1777.0,0.0786
1776.0,0.084
1775.0,0.0889
1774.0,0.0944
1773.0,0.102
1772.0,0.1114
1771.0,0.1197
1770.0,0.127
1769.0,0.1358
1768.0,0.1469
1767.0,0.1589
1766.0,0.1704
1765.0,0.1824
1764.0,0.1969
1763.0,0.2163
1762.0,0.2407
1761.0,0.2656
1760.0,0.2865
1759.0,0.3037
1758.0,0.3207
1757.0,0.3385
1756.0,0.3526
1755.0,0.3601
1754.0,0.3632
1753.0,0.3653
1752.0,0.3671
1751.0,0.3673
1750.0,0.3654
1749.0,0.3613
1748.0,0.3537
1747.0,0.3426
1746.0,0.3291
1745.0,0.3136
1744.0,0.2959
1743.0,0.2772
1742.0,0.2591
1741.0,0.2401
1740.0,0.2194
1739.0,0.2003
1738.0,0.1861
1737.0,0.1751
1736.0,0.1636
1735.0,0.1485
1734.0,0.1329
1733.0,0.1219
1732.0,0.1147
1731.0,0.1085
1730.0,0.1028
1729.0,0.0976
1728.0,0.0929
1727.0,0.0891
1726.0,0.0859
1725.0,0.0829
1724.0,0.0798
1723.0,0.0771
1722.0,0.0749
1721.0,0.0729
1720.0,0.0706
1719.0,0.0679
1718.0,0.0655
1717.0,0.0632
1716.0,0.0607
1715.0,0.0583
1714.0,0.0561
1713.0,0.054
1712.0,0.0517
1711.0,0.0495
1710.0,0.0475
1709.0,0.0458
1708.0,0.044
1707.0,0.0422
1706.0,0.0405
1705.0,0.039
1704.0,0.0377
1703.0,0.0364
1702.0,0.0352
1701.0,0.0339
1700.0,0.0325
1699.0,0.0314
1698.0,0.0307
1697.0,0.0301
1696.0,0.0292
1695.0,0.0284
1694.0,0.0278
1693.0,0.0273
1692.0,0.0266
1691.0,0.0259
1690.0,0.0253
1689.0,0.0247
1688.0,0.0242
1687.0,0.0236
1686.0,0.0232
1685.0,0.023
1684.0,0.0227
1683.0,0.0222
1682.0,0.0218
1681.0,0.0213
1680.0,0.0208
1679.0,0.0204
1678.0,0.02
1677.0,0.0197
1676.0,0.0193
1675.0,0.019
1674.0,0.0188
1673.0,0.0185
1672.0,0.0182
1671.0,0.0178
1670.0,0.0177
1669.0,0.0176
1668.0,0.0174
1667.0,0.0171
1666.0,0.0168
1665.0,0.0166
1664.0,0.0162
1663.0,0.0159
1662.0,0.0157
1661.0,0.0156
1660.0,0.0153
1659.0,0.015
1658.0,0.0148
1657.0,0.0146
1656.0,0.0144
1655.0,0.014
1654.0,0.0139
1653.0,0.0139
1652.0,0.0137
1651.0,0.0135
1650.0,0.0134
1649.0,0.0132
1648.0,0.0128
1647.0,0.0126
1646.0,0.0125
1645.0,0.0124
1644.0,0.0123
1643.0,0.0121
1642.0,0.0121
1641.0,0.012
1640.0,0.0119
1639.0,0.0117
1638.0,0.0116
1637.0,0.0115
1636.0,0.0113
1635.0,0.0112
1634.0,0.0111
1633.0,0.011
1632.0,0.0109
1631.0,0.0108
1630.0,0.0107
1629.0,0.0106
1628.0,0.0105
1627.0,0.0104
1626.0,0.0103
1625.0,0.0103
1624.0,0.0102
1623.0,0.01
1622.0,0.0099
1621.0,0.0098
1620.0,0.0096
1619.0,0.0095
1618.0,0.0094
1617.0,0.0094
1616.0,0.0092
1615.0,0.0091
1614.0,0.0089
1613.0,0.0087
1612.0,0.0084
1611.0,0.0082
1610.0,0.008
1609.0,0.0078
1608.0,0.0077
1607.0,0.0075
1606.0,0.0073
1605.0,0.0071
1604.0,0.0069
1603.0,0.0067
1602.0,0.0066
1601.0,0.0065
1600.0,0.0063
1599.0,0.0062
1598.0,0.0061
1597.0,0.006
1596.0,0.0058
1595.0,0.0057
1594.0,0.0055
1593.0,0.0054
1592.0,0.0052
1591.0,0.005
1590.0,0.0049
1589.0,0.0048
1588.0,0.0047
1587.0,0.0046
1586.0,0.0045
1585.0,0.0044
1584.0,0.0043
1583.0,0.0041
1582.0,0.004
1581.0,0.0039
1580.0,0.0038
1579.0,0.0036
1578.0,0.0035
1577.0,0.0034
1576.0,0.0032
1575.0,0.0031
1574.0,0.0031
1573.0,0.003
1572.0,0.003
1571.0,0.0029
1570.0,0.0028
1569.0,0.0028
1568.0,0.0027
1567.0,0.0026
1566.0,0.0026
1565.0,0.0025
1564.0,0.0024
1563.0,0.0023
1562.0,0.0023
1561.0,0.0023
1560.0,0.0021
1559.0,0.0021
1558.0,0.002
1557.0,0.0019
1556.0,0.0019
1555.0,0.0018
1554.0,0.0018
1553.0,0.0018
1552.0,0.0017
1551.0,0.0017
1550.0,0.0016
1549.0,0.0016
1548.0,0.0015
1547.0,0.0015
1546.0,0.0015
1545.0,0.0015
1544.0,0.0014
1543.0,0.0013
1542.0,0.0013
1541.0,0.0013
1540.0,0.0014
1539.0,0.0013
1538.0,0.0012
1537.0,0.0012
1536.0,0.0012
1535.0,0.0011
1534.0,0.0011
1533.0,0.0011
1532.0,0.0011
1531.0,0.0011
1530.0,0.0011
1529.0,0.0011
1528.0,0.0011
1527.0,0.001
1526.0,0.0009
1525.0,0.001
1524.0,0.001
1523.0,0.001
1522.0,0.0009
1521.0,0.0009
1520.0,0.0008
1519.0,0.0008
1518.0,0.0008
1517.0,0.0008
1516.0,0.0008
1515.0,0.0007
1514.0,0.0006
1513.0,0.0005
1512.0,0.0005
1511.0,0.0004
1510.0,0.0004
1509.0,0.0003
1508.0,0.0003
1507.0,0.0002
1506.0,0.0001
1505.0,0.0
1504.0,0.0001
1503.0,0.0001
1502.0,0.0
1501.0,0.0
1500.0,0.0
1499.0,-0.0001
1498.0,-0.0002
1497.0,-0.0002
1496.0,-0.0002
1495.0,-0.0001
1494.0,-0.0001
1493.0,0.0
1492.0,0.0001
1491.0,0.0001
1490.0,-0.0
1489.0,-0.0
1488.0,0.0001
1487.0,0.0001
1486.0,0.0002
1485.0,0.0003
1484.0,0.0005
1483.0,0.0006
1482.0,0.0008
1481.0,0.0011
1480.0,0.0015
1479.0,0.0019
1478.0,0.0023
1477.0,0.003
1476.0,0.0037
1475.0,0.0045
1474.0,0.0057
1473.0,0.0077
1472.0,0.0104
1471.0,0.0128
1470.0,0.0151
1469.0,0.0179
1468.0,0.0212
1467.0,0.0253
1466.0,0.0309
1465.0,0.0384
1464.0,0.0461
1463.0,0.0526
1462.0,0.0581
1461.0,0.0635
1460.0,0.0688
1459.0,0.0746
1458.0,0.082
1457.0,0.09
1456.0,0.0944
1455.0,0.0959
1454.0,0.0963
1453.0,0.0963
1452.0,0.0958
1451.0,0.0948
1450.0,0.0934
1449.0,0.0912
1448.0,0.088
1447.0,0.084
1446.0,0.0797
1445.0,0.0748
1444.0,0.0691
1443.0,0.0628
1442.0,0.0563
1441.0,0.0502
1440.0,0.0447
1439.0,0.0398
1438.0,0.0348
1437.0,0.0295
1436.0,0.0247
1435.0,0.0216
1434.0,0.0196
1433.0,0.0179
1432.0,0.0162
1431.0,0.0146
1430.0,0.0133
1429.0,0.012
1428.0,0.0109
1427.0,0.0101
1426.0,0.0095
1425.0,0.0088
1424.0,0.0081
1423.0,0.0076
1422.0,0.0072
1421.0,0.0068
1420.0,0.0063
1419.0,0.0059
1418.0,0.0057
1417.0,0.0054
1416.0,0.0052
1415.0,0.0051
1414.0,0.0051
1413.0,0.005
1412.0,0.0049
1411.0,0.0049
1410.0,0.0049
1409.0,0.0049
1408.0,0.005
1407.0,0.0052
1406.0,0.0056
1405.0,0.006
1404.0,0.0065
1403.0,0.0071
1402.0,0.0079
1401.0,0.0088
1400.0,0.0101
1399.0,0.0121
1398.0,0.0144
1397.0,0.0169
1396.0,0.0203
1395.0,0.0249
1394.0,0.03
1393.0,0.0348
1392.0,0.0396
1391.0,0.0447
1390.0,0.0501
1389.0,0.0562
1388.0,0.0632
1387.0,0.0701
1386.0,0.0752
1385.0,0.0784
1384.0,0.0802
1383.0,0.0807
1382.0,0.0798
1381.0,0.0774
1380.0,0.0735
1379.0,0.0688
1378.0,0.064
1377.0,0.06
1376.0,0.0572
1375.0,0.0564
1374.0,0.0577
1373.0,0.0606
1372.0,0.0641
1371.0,0.0674
1370.0,0.0705
1369.0,0.0731
1368.0,0.0751
1367.0,0.0766
1366.0,0.0779
1365.0,0.0794
1364.0,0.0815
1363.0,0.0841
1362.0,0.0868
1361.0,0.0889
1360.0,0.0902
1359.0,0.0908
1358.0,0.0906
1357.0,0.0895
1356.0,0.0874
1355.0,0.0845
1354.0,0.0811
1353.0,0.0773
1352.0,0.0735
1351.0,0.0695
1350.0,0.0656
1349.0,0.0619
1348.0,0.0584
1347.0,0.0552
1346.0,0.0523
1345.0,0.0497
1344.0,0.0473
1343.0,0.0452
1342.0,0.0432
1341.0,0.0412
1340.0,0.0394
1339.0,0.0377
1338.0,0.0363
1337.0,0.0351
1336.0,0.034
1335.0,0.033
1334.0,0.0321
1333.0,0.0313
1332.0,0.0306
1331.0,0.0299
1330.0,0.0294
1329.0,0.0289
1328.0,0.0286
1327.0,0.0283
1326.0,0.0281
1325.0,0.0279
1324.0,0.0279
1323.0,0.0278
1322.0,0.0278
1321.0,0.0278
1320.0,0.0278
1319.0,0.0277
1318.0,0.0278
1317.0,0.0278
1316.0,0.0279
1315.0,0.028
1314.0,0.0282
1313.0,0.0285
1312.0,0.0289
1311.0,0.0293
1310.0,0.0298
1309.0,0.0304
1308.0,0.0309
1307.0,0.0314
1306.0,0.0317
1305.0,0.0318
1304.0,0.0318
1303.0,0.0316
1302.0,0.0314
1301.0,0.0312
1300.0,0.0309
1299.0,0.0306
1298.0,0.0303
1297.0,0.03
1296.0,0.0295
1295.0,0.0289
1294.0,0.0282
1293.0,0.0273
1292.0,0.0264
1291.0,0.0254
1290.0,0.0247
1289.0,0.0244
1288.0,0.0245
1287.0,0.0252
1286.0,0.0264
1285.0,0.0281
1284.0,0.0301
1283.0,0.0324
1282.0,0.0349
1281.0,0.0376
1280.0,0.0403
1279.0,0.0429
1278.0,0.0455
1277.0,0.0479
1276.0,0.0502
1275.0,0.0523
1274.0,0.0542
1273.0,0.0558
1272.0,0.0572
1271.0,0.0583
1270.0,0.0591
1269.0,0.0596
1268.0,0.0599
1267.0,0.06
1266.0,0.0598
1265.0,0.0594
1264.0,0.0588
1263.0,0.058
1262.0,0.0571
1261.0,0.0561
1260.0,0.055
1259.0,0.0539
1258.0,0.0528
1257.0,0.0518
1256.0,0.0508
1255.0,0.0499
1254.0,0.0491
1253.0,0.0484
1252.0,0.0478
1251.0,0.0474
1250.0,0.0471
1249.0,0.0469
1248.0,0.0467
1247.0,0.0467
1246.0,0.0468
1245.0,0.047
1244.0,0.0473
1243.0,0.0477
1242.0,0.0482
1241.0,0.0489
1240.0,0.0497
1239.0,0.0505
1238.0,0.0515
1237.0,0.0527
1236.0,0.054
1235.0,0.0556
1234.0,0.0574
1233.0,0.0595
1232.0,0.0618
1231.0,0.0646
1230.0,0.0678
1229.0,0.0715
1228.0,0.0757
1227.0,0.0804
1226.0,0.0856
1225.0,0.0914
1224.0,0.0977
1223.0,0.1043
1222.0,0.1113
1221.0,0.1186
1220.0,0.1263
1219.0,0.1341
1218.0,0.1421
1217.0,0.1503
1216.0,0.1583
1215.0,0.166
1214.0,0.1729
1213.0,0.1788
1212.0,0.1835
1211.0,0.1866
1210.0,0.1882
1209.0,0.1886
1208.0,0.1882
1207.0,0.1874
1206.0,0.1865
1205.0,0.1859
1204.0,0.186
1203.0,0.1867
1202.0,0.188
1201.0,0.1901
1200.0,0.1931
1199.0,0.1966
1198.0,0.2009
1197.0,0.2062
1196.0,0.2124
1195.0,0.2195
1194.0,0.2276
1193.0,0.237
1192.0,0.2477
1191.0,0.2597
1190.0,0.2731
1189.0,0.2883
1188.0,0.3053
1187.0,0.3237
1186.0,0.343
1185.0,0.3628
1184.0,0.3818
1183.0,0.3979
1182.0,0.4088
1181.0,0.4126
1180.0,0.4076
1179.0,0.3931
1178.0,0.3702
1177.0,0.3419
1176.0,0.3108
1175.0,0.2792
1174.0,0.249
1173.0,0.2216
1172.0,0.1973
1171.0,0.1759
1170.0,0.1574
1169.0,0.1417
1168.0,0.1283
1167.0,0.1169
1166.0,0.1073
1165.0,0.0992
1164.0,0.0922
1163.0,0.0862
1162.0,0.081
1161.0,0.0767
1160.0,0.0729
1159.0,0.0695
1158.0,0.0667
1157.0,0.0643
1156.0,0.0624
1155.0,0.061
1154.0,0.0601
1153.0,0.0599
1152.0,0.0604
1151.0,0.0615
1150.0,0.0636
1149.0,0.0667
1148.0,0.071
1147.0,0.0766
1146.0,0.0836
1145.0,0.0921
1144.0,0.102
1143.0,0.1132
1142.0,0.1256
1141.0,0.139
1140.0,0.1533
1139.0,0.1682
1138.0,0.1834
1137.0,0.1987
1136.0,0.2136
1135.0,0.2274
1134.0,0.2398
1133.0,0.2506
1132.0,0.2595
1131.0,0.2663
1130.0,0.2707
1129.0,0.2727
1128.0,0.272
1127.0,0.2682
1126.0,0.2616
1125.0,0.253
1124.0,0.2431
1123.0,0.2327
1122.0,0.2225
1121.0,0.2132
1120.0,0.2052
1119.0,0.1984
1118.0,0.193
1117.0,0.1892
1116.0,0.187
1115.0,0.1865
1114.0,0.1876
1113.0,0.1906
1112.0,0.1953
1111.0,0.2016
1110.0,0.2093
1109.0,0.2182
1108.0,0.2282
1107.0,0.2388
1106.0,0.25
1105.0,0.2617
1104.0,0.2739
1103.0,0.2864
1102.0,0.2991
1101.0,0.3123
1100.0,0.3259
1099.0,0.3396
1098.0,0.3534
1097.0,0.3677
1096.0,0.3824
1095.0,0.3972
1094.0,0.412
1093.0,0.4272
1092.0,0.4428
1091.0,0.4582
1090.0,0.4732
1089.0,0.4879
1088.0,0.502
1087.0,0.5142
1086.0,0.5239
1085.0,0.531
1084.0,0.5353
1083.0,0.5358
1082.0,0.5322
1081.0,0.5255
1080.0,0.516
1079.0,0.5033
1078.0,0.4881
1077.0,0.4712
1076.0,0.453
1075.0,0.4335
1074.0,0.413
1073.0,0.3925
1072.0,0.3721
1071.0,0.3519
1070.0,0.3321
1069.0,0.3133
1068.0,0.2958
1067.0,0.2795
1066.0,0.2646
1065.0,0.2516
1064.0,0.2407
1063.0,0.2318
1062.0,0.2251
1061.0,0.2205
1060.0,0.2179
1059.0,0.2167
1058.0,0.2169
1057.0,0.2183
1056.0,0.2207
1055.0,0.2238
1054.0,0.2274
1053.0,0.2316
1052.0,0.2364
1051.0,0.2415
1050.0,0.2471
1049.0,0.2531
1048.0,0.2594
1047.0,0.2652
1046.0,0.2702
1045.0,0.2739
1044.0,0.2759
1043.0,0.2759
1042.0,0.2739
1041.0,0.2701
1040.0,0.2646
1039.0,0.2573
1038.0,0.2487
1037.0,0.2393
1036.0,0.2295
1035.0,0.2199
1034.0,0.2107
1033.0,0.2023
1032.0,0.1947
1031.0,0.1879
1030.0,0.1818
1029.0,0.1765
1028.0,0.172
1027.0,0.1677
1026.0,0.1636
1025.0,0.1596
1024.0,0.1554
1023.0,0.151
1022.0,0.1465
1021.0,0.1418
1020.0,0.1371
1019.0,0.1325
1018.0,0.1279
1017.0,0.1235
1016.0,0.1193
1015.0,0.1152
1014.0,0.1114
1013.0,0.1078
1012.0,0.1045
1011.0,0.1014
1010.0,0.0986
1009.0,0.096
1008.0,0.0937
1007.0,0.0915
1006.0,0.0895
1005.0,0.0876
1004.0,0.0858
1003.0,0.0841
1002.0,0.0825
1001.0,0.0811
1000.0,0.0797
999.0,0.0785
998.0,0.0773
997.0,0.0762
996.0,0.0751
995.0,0.074
994.0,0.073
993.0,0.072
992.0,0.071
991.0,0.0701
990.0,0.0693
989.0,0.0686
988.0,0.0678
987.0,0.067
986.0,0.0661
985.0,0.0653
984.0,0.0645
983.0,0.0638
982.0,0.0632
981.0,0.0625
980.0,0.0619
979.0,0.0612
978.0,0.0605
977.0,0.0597
976.0,0.059
975.0,0.0584
974.0,0.0577
973.0,0.0572
972.0,0.0567
971.0,0.0562
970.0,0.0556
969.0,0.0552
968.0,0.0548
967.0,0.0545
966.0,0.0543
965.0,0.0544
964.0,0.0548
963.0,0.0554
962.0,0.0563
961.0,0.0576
960.0,0.059
959.0,0.0604
958.0,0.0615
957.0,0.0621
956.0,0.0622
955.0,0.0619
954.0,0.0613
953.0,0.0605
952.0,0.0597
951.0,0.0588
950.0,0.0579
949.0,0.0571
948.0,0.0563
947.0,0.0556
946.0,0.0549
945.0,0.0543
944.0,0.0537
943.0,0.0532
942.0,0.0527
941.0,0.0522
940.0,0.0519
939.0,0.0515
938.0,0.0513
937.0,0.051
936.0,0.0507
935.0,0.0506
934.0,0.0505
933.0,0.0506
932.0,0.0507
931.0,0.051
930.0,0.0514
929.0,0.0518
928.0,0.0523
927.0,0.0528
926.0,0.0533
925.0,0.0536
924.0,0.054
923.0,0.0543
922.0,0.0546
921.0,0.0548
920.0,0.055
919.0,0.0549
918.0,0.0547
917.0,0.0543
916.0,0.0537
915.0,0.0531
914.0,0.0526
913.0,0.0522
912.0,0.0518
911.0,0.0514
910.0,0.051
909.0,0.0506
908.0,0.0502
907.0,0.0499
906.0,0.0497
905.0,0.0495
904.0,0.0493
903.0,0.0491
902.0,0.0489
901.0,0.0488
900.0,0.0487
899.0,0.0487
898.0,0.0486
897.0,0.0486
896.0,0.0485
895.0,0.0483
894.0,0.048
893.0,0.0477
892.0,0.0472
891.0,0.0466
890.0,0.046
889.0,0.0454
888.0,0.0448
887.0,0.0444
886.0,0.0442
885.0,0.0444
884.0,0.045
883.0,0.0463
882.0,0.0482
881.0,0.0507
880.0,0.0539
879.0,0.0578
878.0,0.0623
877.0,0.0674
876.0,0.0727
875.0,0.0781
874.0,0.0831
873.0,0.0875
872.0,0.0908
871.0,0.0929
870.0,0.0936
869.0,0.0932
868.0,0.0919
867.0,0.0902
866.0,0.0882
865.0,0.086
864.0,0.0838
863.0,0.0813
862.0,0.0786
861.0,0.0756
860.0,0.0725
859.0,0.069
858.0,0.0655
857.0,0.0621
856.0,0.0589
855.0,0.056
854.0,0.0536
853.0,0.0517
852.0,0.0503
851.0,0.0493
850.0,0.0486
849.0,0.0482
848.0,0.0477
847.0,0.0471
846.0,0.0463
845.0,0.0454
844.0,0.0443
843.0,0.0431
842.0,0.0418
841.0,0.0407
840.0,0.0396
839.0,0.0387
838.0,0.038
837.0,0.0373
836.0,0.0366
835.0,0.036
834.0,0.0355
833.0,0.0351
832.0,0.0347
831.0,0.0343
830.0,0.034
829.0,0.0338
828.0,0.0336
827.0,0.0332
826.0,0.0329
825.0,0.0325
824.0,0.0322
823.0,0.032
822.0,0.0318
821.0,0.0317
820.0,0.0315
819.0,0.0313
818.0,0.0311
817.0,0.031
816.0,0.0308
815.0,0.0306
814.0,0.0304
813.0,0.0302
812.0,0.03
811.0,0.0298
810.0,0.0297
809.0,0.0295
808.0,0.0294
807.0,0.0293
806.0,0.0292
805.0,0.029
804.0,0.0289
803.0,0.0287
802.0,0.0286
801.0,0.0286
800.0,0.0285
799.0,0.0283
798.0,0.0282
797.0,0.0281
796.0,0.0281
795.0,0.028
794.0,0.0281
793.0,0.0282
792.0,0.0284
791.0,0.0287
790.0,0.029
789.0,0.0294
788.0,0.0299
787.0,0.0306
786.0,0.0313
785.0,0.032
784.0,0.0326
783.0,0.0333
782.0,0.034
781.0,0.0348
780.0,0.0357
779.0,0.0365
778.0,0.0373
777.0,0.0383
776.0,0.0393
775.0,0.0404
774.0,0.0417
773.0,0.043
772.0,0.0444
771.0,0.0459
770.0,0.0475
769.0,0.0494
768.0,0.0515
767.0,0.0539
766.0,0.0566
765.0,0.0598
764.0,0.0633
763.0,0.0674
762.0,0.072
761.0,0.0771
760.0,0.0825
759.0,0.0878
758.0,0.0923
757.0,0.0958
756.0,0.0979
755.0,0.0985
754.0,0.0974
753.0,0.0951
752.0,0.0918
751.0,0.0881
750.0,0.0847
749.0,0.0819
748.0,0.0795
747.0,0.0775
746.0,0.0758
745.0,0.0744
744.0,0.0734
743.0,0.0726
742.0,0.0717
741.0,0.0708
740.0,0.07
739.0,0.069
738.0,0.0678
737.0,0.0663
736.0,0.0643
735.0,0.0618
734.0,0.0588
733.0,0.0555
732.0,0.0522
731.0,0.0494
730.0,0.0472
729.0,0.0456
728.0,0.0447
727.0,0.0444
726.0,0.0446
725.0,0.0452
724.0,0.0459
723.0,0.0468
722.0,0.0481
721.0,0.0498
720.0,0.052
719.0,0.0544
718.0,0.0567
717.0,0.059
716.0,0.061
715.0,0.0627
714.0,0.0642
713.0,0.0656
712.0,0.067
711.0,0.0683
710.0,0.0693
709.0,0.07
708.0,0.0705
707.0,0.0706
706.0,0.0707
705.0,0.0709
704.0,0.0713
703.0,0.0718
702.0,0.0725
701.0,0.0733
700.0,0.0738
699.0,0.0741
698.0,0.0744
697.0,0.0746
696.0,0.0746
695.0,0.0742
694.0,0.0736
693.0,0.0732
692.0,0.0732
691.0,0.0733
690.0,0.0734
689.0,0.0731
688.0,0.0724
687.0,0.0715
686.0,0.0711
685.0,0.0711
684.0,0.0708
683.0,0.0697
682.0,0.0681
681.0,0.0664
680.0,0.0648
679.0,0.0636
678.0,0.063
677.0,0.0632
676.0,0.0636
675.0,0.0636
674.0,0.0629
673.0,0.0616
672.0,0.06
671.0,0.0585
670.0,0.0574
669.0,0.0575
668.0,0.0596
667.0,0.0612
666.0,0.0602
665.0,0.0584
664.0,0.0572
663.0,0.0566
662.0,0.0565
661.0,0.0567
660.0,0.057
659.0,0.0571
658.0,0.0566
657.0,0.0556
656.0,0.0541
655.0,0.0524
654.0,0.0509
653.0,0.0502
652.0,0.0502
651.0,0.0509
650.0,0.0517
649.0,0.0522
648.0,0.052
647.0,0.0511
646.0,0.0502
645.0,0.0498
644.0,0.0498
643.0,0.0498
642.0,0.0496
641.0,0.0493
640.0,0.049
639.0,0.0489
638.0,0.0491
637.0,0.0495
636.0,0.05
635.0,0.0502
634.0,0.0503
633.0,0.0504
632.0,0.0506
631.0,0.0509
630.0,0.0509
629.0,0.0506
628.0,0.0497
627.0,0.0482
626.0,0.0468
625.0,0.0458
624.0,0.0451
623.0,0.0448
622.0,0.0449
621.0,0.0453
620.0,0.0454
619.0,0.045
618.0,0.0445
617.0,0.0442
616.0,0.0434
615.0,0.0421
614.0,0.0406
613.0,0.0395
612.0,0.0388
611.0,0.0383
610.0,0.0378
609.0,0.0374
608.0,0.0373
607.0,0.0372
606.0,0.0371
605.0,0.0368
604.0,0.0364
603.0,0.0361
602.0,0.036
601.0,0.0357
600.0,0.0353
