cm-1,A
4000.0,-0.0037
3999.0,-0.0037
3998.0,-0.0038
3997.0,-0.0038
3996.0,-0.0038
3995.0,-0.0038
3994.0,-0.0038
3993.0,-0.0038
3992.0,-0.0038
3991.0,-0.0038
3990.0,-0.0038
3989.0,-0.0038
3988.0,-0.0038
3987.0,-0.0039
3986.0,-0.004
3985.0,-0.004
3984.0,-0.004
3983.0,-0.004
3982.0,-0.0039
3981.0,-0.0039
3980.0,-0.0039
3979.0,-0.0039
3978.0,-0.004
3977.0,-0.004
3976.0,-0.004
3975.0,-0.004
3974.0,-0.0039
3973.0,-0.0039
3972.0,-0.0039
3971.0,-0.0038
3970.0,-0.0038
3969.0,-0.0038
3968.0,-0.0037
3967.0,-0.0037
3966.0,-0.0037
3965.0,-0.0036
3964.0,-0.0036
3963.0,-0.0037
3962.0,-0.0037
3961.0,-0.0038
3960.0,-0.0038
3959.0,-0.0039
3958.0,-0.0039
3957.0,-0.0039
3956.0,-0.0039
3955.0,-0.0038
3954.0,-0.0038
3953.0,-0.0038
3952.0,-0.0037
3951.0,-0.0037
3950.0,-0.0037
3949.0,-0.0037
3948.0,-0.0038
3947.0,-0.0038
3946.0,-0.0038
3945.0,-0.0038
3944.0,-0.0038
3943.0,-0.0037
3942.0,-0.0036
3941.0,-0.0035
3940.0,-0.0035
3939.0,-0.0035
3938.0,-0.0036
3937.0,-0.0036
3936.0,-0.0036
3935.0,-0.0036
3934.0,-0.0036
3933.0,-0.0036
3932.0,-0.0035
3931.0,-0.0035
3930.0,-0.0036
3929.0,-0.0036
3928.0,-0.0036
3927.0,-0.0036
3926.0,-0.0037
3925.0,-0.0037
3924.0,-0.0037
3923.0,-0.0038
3922.0,-0.0039
3921.0,-0.004
3920.0,-0.0041
3919.0,-0.0041
3918.0,-0.004
3917.0,-0.0039
3916.0,-0.0038
3915.0,-0.0037
3914.0,-0.0037
3913.0,-0.0037
3912.0,-0.0037
3911.0,-0.0037
3910.0,-0.0036
3909.0,-0.0036
3908.0,-0.0036
3907.0,-0.0036
3906.0,-0.0036
3905.0,-0.0037
3904.0,-0.0037
3903.0,-0.0037
3902.0,-0.0036
3901.0,-0.0035
3900.0,-0.0034
3899.0,-0.0034
3898.0,-0.0035
3897.0,-0.0036
3896.0,-0.0036
3895.0,-0.0035
3894.0,-0.0035
3893.0,-0.0034
3892.0,-0.0034
3891.0,-0.0034
3890.0,-0.0034
3889.0,-0.0034
3888.0,-0.0034
3887.0,-0.0033
3886.0,-0.0032
3885.0,-0.0032
3884.0,-0.0031
3883.0,-0.0032
3882.0,-0.0032
3881.0,-0.0033
3880.0,-0.0034
3879.0,-0.0035
3878.0,-0.0036
3877.0,-0.0036
3876.0,-0.0036
3875.0,-0.0036
3874.0,-0.0035
3873.0,-0.0035
3872.0,-0.0035
3871.0,-0.0035
3870.0,-0.0035
3869.0,-0.0035
3868.0,-0.0034
3867.0,-0.0034
3866.0,-0.0035
3865.0,-0.0035
3864.0,-0.0034
3863.0,-0.0033
3862.0,-0.0033
3861.0,-0.0033
3860.0,-0.0033
3859.0,-0.0033
3858.0,-0.0033
3857.0,-0.0032
3856.0,-0.0032
3855.0,-0.0033
3854.0,-0.0034
3853.0,-0.0034
3852.0,-0.0033
3851.0,-0.0033
3850.0,-0.0033
3849.0,-0.0034
3848.0,-0.0033
3847.0,-0.0033
3846.0,-0.0032
3845.0,-0.0031
3844.0,-0.003
3843.0,-0.003
3842.0,-0.0029
3841.0,-0.0029
3840.0,-0.003
3839.0,-0.003
3838.0,-0.003
3837.0,-0.0031
3836.0,-0.0031
3835.0,-0.0032
3834.0,-0.0032
3833.0,-0.0032
3832.0,-0.0032
3831.0,-0.0032
3830.0,-0.0031
3829.0,-0.0031
3828.0,-0.0032
3827.0,-0.0032
3826.0,-0.0032
3825.0,-0.0032
3824.0,-0.0032
3823.0,-0.0033
3822.0,-0.0034
3821.0,-0.0034
3820.0,-0.0033
3819.0,-0.0033
3818.0,-0.0033
3817.0,-0.0033
3816.0,-0.0033
3815.0,-0.0033
3814.0,-0.0033
3813.0,-0.0034
3812.0,-0.0035
3811.0,-0.0035
3810.0,-0.0035
3809.0,-0.0036
3808.0,-0.0036
3807.0,-0.0036
3806.0,-0.0034
3805.0,-0.0033
3804.0,-0.0032
3803.0,-0.003
3802.0,-0.0029
3801.0,-0.0028
3800.0,-0.0027
3799.0,-0.0028
3798.0,-0.003
3797.0,-0.0031
3796.0,-0.0032
3795.0,-0.0033
3794.0,-0.0034
3793.0,-0.0035
3792.0,-0.0035
3791.0,-0.0036
3790.0,-0.0035
3789.0,-0.0035
3788.0,-0.0035
3787.0,-0.0034
3786.0,-0.0034
3785.0,-0.0034
3784.0,-0.0033
3783.0,-0.0031
3782.0,-0.003
3781.0,-0.003
3780.0,-0.0031
3779.0,-0.0032
3778.0,-0.0033
3777.0,-0.0034
3776.0,-0.0034
3775.0,-0.0033
3774.0,-0.0033
3773.0,-0.0033
3772.0,-0.0032
3771.0,-0.0032
3770.0,-0.0031
3769.0,-0.003
3768.0,-0.003
3767.0,-0.003
3766.0,-0.0031
3765.0,-0.0031
3764.0,-0.0031
3763.0,-0.0032
3762.0,-0.0031
3761.0,-0.0031
3760.0,-0.003
3759.0,-0.003
3758.0,-0.0029
3757.0,-0.0029
3756.0,-0.0028
3755.0,-0.0027
3754.0,-0.0026
3753.0,-0.0027
3752.0,-0.0028
3751.0,-0.0029
3750.0,-0.0028
3749.0,-0.0028
3748.0,-0.0028
3747.0,-0.0028
3746.0,-0.0029
3745.0,-0.003
3744.0,-0.0032
3743.0,-0.0033
3742.0,-0.0035
3741.0,-0.0036
3740.0,-0.0036
3739.0,-0.0036
3738.0,-0.0037
3737.0,-0.0037
3736.0,-0.0039
3735.0,-0.0039
3734.0,-0.0039
3733.0,-0.0039
3732.0,-0.0039
3731.0,-0.004
3730.0,-0.004
3729.0,-0.0041
3728.0,-0.0041
3727.0,-0.0041
3726.0,-0.004
3725.0,-0.0039
3724.0,-0.0038
3723.0,-0.0038
3722.0,-0.0037
3721.0,-0.0037
3720.0,-0.0035
3719.0,-0.0034
3718.0,-0.0032
3717.0,-0.0031
3716.0,-0.003
3715.0,-0.0029
3714.0,-0.0029
3713.0,-0.0031
3712.0,-0.0033
3711.0,-0.0035
3710.0,-0.0035
3709.0,-0.0034
3708.0,-0.0033
3707.0,-0.0033
3706.0,-0.0032
3705.0,-0.0031
3704.0,-0.0029
3703.0,-0.0028
3702.0,-0.0027
3701.0,-0.0027
3700.0,-0.0028
3699.0,-0.0029
3698.0,-0.0029
3697.0,-0.0028
3696.0,-0.0026
3695.0,-0.0025
3694.0,-0.0024
3693.0,-0.0023
3692.0,-0.0021
3691.0,-0.0018
3690.0,-0.0016
3689.0,-0.0014
3688.0,-0.0014
3687.0,-0.0015
3686.0,-0.0016
3685.0,-0.0017
3684.0,-0.0016
3683.0,-0.0015
3682.0,-0.0014
3681.0,-0.0012
3680.0,-0.001
3679.0,-0.0008
3678.0,-0.0006
3677.0,-0.0003
3676.0,0.0001
3675.0,0.0004
3674.0,0.0004
3673.0,0.0003
3672.0,0.0002
3671.0,0.0002
3670.0,0.0004
3669.0,0.0007
3668.0,0.0008
3667.0,0.0008
3666.0,0.0008
3665.0,0.0008
3664.0,0.0009
3663.0,0.001
3662.0,0.0012
3661.0,0.0013
3660.0,0.0014
3659.0,0.0015
3658.0,0.0017
3657.0,0.002
3656.0,0.0023
3655.0,0.0026
3654.0,0.0027
3653.0,0.0028
3652.0,0.0029
3651.0,0.0029
3650.0,0.0031
3649.0,0.0036
3648.0,0.0039
3647.0,0.004
3646.0,0.004
3645.0,0.0039
3644.0,0.0039
3643.0,0.004
3642.0,0.0042
3641.0,0.0044
3640.0,0.0046
3639.0,0.0047
3638.0,0.0049
3637.0,0.005
3636.0,0.0051
3635.0,0.0053
3634.0,0.0055
3633.0,0.0057
3632.0,0.0058
3631.0,0.0059
3630.0,0.0062
3629.0,0.0068
3628.0,0.0073
3627.0,0.0076
3626.0,0.0078
3625.0,0.0079
3624.0,0.0081
3623.0,0.0084
3622.0,0.0088
3621.0,0.0092
3620.0,0.0097
3619.0,0.01
3618.0,0.0101
3617.0,0.0103
3616.0,0.0105
3615.0,0.0109
3614.0,0.0114
3613.0,0.0118
3612.0,0.012
3611.0,0.012
3610.0,0.0121
3609.0,0.0124
3608.0,0.0128
3607.0,0.0133
3606.0,0.0136
3605.0,0.0137
3604.0,0.0139
3603.0,0.014
3602.0,0.0143
3601.0,0.0147
3600.0,0.0152
3599.0,0.0156
3598.0,0.0159
3597.0,0.0161
3596.0,0.0163
3595.0,0.0165
3594.0,0.0168
3593.0,0.017
3592.0,0.0172
3591.0,0.0174
3590.0,0.0177
3589.0,0.0182
3588.0,0.019
3587.0,0.0198
3586.0,0.0203
3585.0,0.0205
3584.0,0.0206
3583.0,0.0207
3582.0,0.0209
3581.0,0.0212
3580.0,0.0215
3579.0,0.0219
3578.0,0.0222
3577.0,0.0225
3576.0,0.0228
3575.0,0.0231
3574.0,0.0233
3573.0,0.0236
3572.0,0.0237
3571.0,0.0238
3570.0,0.0238
3569.0,0.0241
3568.0,0.0247
3567.0,0.0255
3566.0,0.0261
3565.0,0.0264
3564.0,0.0265
3563.0,0.0266
3562.0,0.0268
3561.0,0.0271
3560.0,0.0275
3559.0,0.0279
3558.0,0.0282
3557.0,0.0284
3556.0,0.0286
3555.0,0.0288
3554.0,0.0292
3553.0,0.0297
3552.0,0.0301
3551.0,0.0304
3550.0,0.0306
3549.0,0.0307
3548.0,0.0309
3547.0,0.0313
3546.0,0.0318
3545.0,0.0324
3544.0,0.0329
3543.0,0.0332
3542.0,0.0335
3541.0,0.0337
3540.0,0.0338
3539.0,0.0339
3538.0,0.0341
3537.0,0.0344
3536.0,0.0347
3535.0,0.0351
3534.0,0.0353
3533.0,0.0354
3532.0,0.0356
3531.0,0.0359
3530.0,0.0362
3529.0,0.0367
3528.0,0.0371
3527.0,0.0374
3526.0,0.0376
3525.0,0.0379
3524.0,0.0383
3523.0,0.0387
3522.0,0.0392
3521.0,0.0395
3520.0,0.0398
3519.0,0.0401
3518.0,0.0404
3517.0,0.0407
3516.0,0.041
3515.0,0.0413
3514.0,0.0416
3513.0,0.0419
3512.0,0.0423
3511.0,0.0427
3510.0,0.0432
3509.0,0.0436
3508.0,0.0439
3507.0,0.044
3506.0,0.0441
3505.0,0.0444
3504.0,0.0448
3503.0,0.0454
3502.0,0.0459
3501.0,0.0462
3500.0,0.0465
3499.0,0.0469
3498.0,0.0473
3497.0,0.0478
3496.0,0.0484
3495.0,0.0488
3494.0,0.0492
3493.0,0.0495
3492.0,0.0497
3491.0,0.05
3490.0,0.0503
3489.0,0.0508
3488.0,0.0513
3487.0,0.0518
3486.0,0.0522
3485.0,0.0526
3484.0,0.053
3483.0,0.0534
3482.0,0.054
3481.0,0.0545
3480.0,0.055
3479.0,0.0553
3478.0,0.0557
3477.0,0.056
3476.0,0.0563
3475.0,0.0567
3474.0,0.0571
3473.0,0.0576
3472.0,0.058
3471.0,0.0585
3470.0,0.0589
3469.0,0.0593
3468.0,0.0597
3467.0,0.0603
3466.0,0.0608
3465.0,0.0613
3464.0,0.0618
3463.0,0.0623
3462.0,0.0628
3461.0,0.0633
3460.0,0.0637
3459.0,0.0641
3458.0,0.0645
3457.0,0.065
3456.0,0.0655
3455.0,0.066
3454.0,0.0666
3453.0,0.0672
3452.0,0.0677
3451.0,0.0682
3450.0,0.0686
3449.0,0.0691
3448.0,0.0699
3447.0,0.0706
3446.0,0.0713
3445.0,0.0718
3444.0,0.0722
3443.0,0.0726
3442.0,0.0732
3441.0,0.0738
3440.0,0.0744
3439.0,0.0749
3438.0,0.0753
3437.0,0.0758
3436.0,0.0763
3435.0,0.0768
3434.0,0.0774
3433.0,0.078
3432.0,0.0786
3431.0,0.0794
3430.0,0.0801
3429.0,0.0808
3428.0,0.0815
3427.0,0.0821
3426.0,0.0826
3425.0,0.0829
3424.0,0.0833
3423.0,0.0838
3422.0,0.0846
3421.0,0.0855
3420.0,0.0863
3419.0,0.0869
3418.0,0.0874
3417.0,0.0878
3416.0,0.0883
3415.0,0.0889
3414.0,0.0895
3413.0,0.09
3412.0,0.0904
3411.0,0.0909
3410.0,0.0914
3409.0,0.0919
3408.0,0.0924
3407.0,0.0929
3406.0,0.0933
3405.0,0.0937
3404.0,0.0941
3403.0,0.0946
3402.0,0.0951
3401.0,0.0956
3400.0,0.096
3399.0,0.0964
3398.0,0.0969
3397.0,0.0973
3396.0,0.0976
3395.0,0.0979
3394.0,0.0981
3393.0,0.0984
3392.0,0.0987
3391.0,0.099
3390.0,0.0992
3389.0,0.0994
3388.0,0.0996
3387.0,0.0998
3386.0,0.1
3385.0,0.1001
3384.0,0.1003
3383.0,0.1004
3382.0,0.1005
3381.0,0.1006
3380.0,0.1005
3379.0,0.1005
3378.0,0.1003
3377.0,0.1002
3376.0,0.1
3375.0,0.0999
3374.0,0.0999
3373.0,0.0998
3372.0,0.0996
3371.0,0.0995
3370.0,0.0994
3369.0,0.0993
3368.0,0.0992
3367.0,0.0991
3366.0,0.0989
3365.0,0.0988
3364.0,0.0985
3363.0,0.0982
3362.0,0.0979
3361.0,0.0977
3360.0,0.0975
3359.0,0.0972
3358.0,0.0969
3357.0,0.0967
3356.0,0.0965
3355.0,0.0964
3354.0,0.0962
3353.0,0.0959
3352.0,0.0955
3351.0,0.095
3350.0,0.0947
3349.0,0.0944
3348.0,0.0941
3347.0,0.0939
3346.0,0.0936
3345.0,0.0933
3344.0,0.093
3343.0,0.0927
3342.0,0.0925
3341.0,0.0922
3340.0,0.0919
3339.0,0.0915
3338.0,0.091
3337.0,0.0905
3336.0,0.0902
3335.0,0.0899
3334.0,0.0896
3333.0,0.0893
3332.0,0.0889
3331.0,0.0886
3330.0,0.0883
3329.0,0.088
3328.0,0.0876
3327.0,0.0873
3326.0,0.0869
3325.0,0.0864
3324.0,0.086
3323.0,0.0856
3322.0,0.0852
3321.0,0.0848
3320.0,0.0844
3319.0,0.0841
3318.0,0.0838
3317.0,0.0834
3316.0,0.083
3315.0,0.0825
3314.0,0.0821
3313.0,0.0817
3312.0,0.0813
3311.0,0.0809
3310.0,0.0805
3309.0,0.0802
3308.0,0.0798
3307.0,0.0794
3306.0,0.079
3305.0,0.0786
3304.0,0.0783
3303.0,0.0779
3302.0,0.0776
3301.0,0.0773
3300.0,0.0769
3299.0,0.0766
3298.0,0.0763
3297.0,0.076
3296.0,0.0756
3295.0,0.0753
3294.0,0.0749
3293.0,0.0745
3292.0,0.0742
3291.0,0.0739
3290.0,0.0736
3289.0,0.0733
3288.0,0.0731
3287.0,0.0729
3286.0,0.0727
3285.0,0.0725
3284.0,0.0723
3283.0,0.072
3282.0,0.0718
3281.0,0.0715
3280.0,0.0712
3279.0,0.0709
3278.0,0.0707
3277.0,0.0705
3276.0,0.0704
3275.0,0.0703
3274.0,0.0702
3273.0,0.0701
3272.0,0.07
3271.0,0.0698
3270.0,0.0697
3269.0,0.0695
3268.0,0.0693
3267.0,0.0692
3266.0,0.0692
3265.0,0.0692
3264.0,0.0692
3263.0,0.0692
3262.0,0.069
3261.0,0.0689
3260.0,0.0688
3259.0,0.0687
3258.0,0.0688
3257.0,0.0688
3256.0,0.0688
3255.0,0.0688
3254.0,0.0687
3253.0,0.0686
3252.0,0.0684
3251.0,0.0683
3250.0,0.0683
3249.0,0.0683
3248.0,0.0683
3247.0,0.0682
3246.0,0.068
3245.0,0.0678
3244.0,0.0676
3243.0,0.0673
3242.0,0.067
3241.0,0.0666
3240.0,0.0663
3239.0,0.066
3238.0,0.0656
3237.0,0.0652
3236.0,0.0648
3235.0,0.0644
3234.0,0.0639
3233.0,0.0635
3232.0,0.063
3231.0,0.0626
3230.0,0.0622
3229.0,0.0618
3228.0,0.0613
3227.0,0.0608
3226.0,0.0603
3225.0,0.0598
3224.0,0.0595
3223.0,0.0591
3222.0,0.0586
3221.0,0.0581
3220.0,0.0576
3219.0,0.0571
3218.0,0.0566
3217.0,0.056
3216.0,0.0554
3215.0,0.0549
3214.0,0.0544
3213.0,0.0539
3212.0,0.0534
3211.0,0.0529
3210.0,0.0525
3209.0,0.0521
3208.0,0.0517
3207.0,0.0512
3206.0,0.0507
3205.0,0.0502
3204.0,0.0497
3203.0,0.0493
3202.0,0.0488
3201.0,0.0484
3200.0,0.048
3199.0,0.0476
3198.0,0.0471
3197.0,0.0467
3196.0,0.0462
3195.0,0.0457
3194.0,0.0452
3193.0,0.0448
3192.0,0.0445
3191.0,0.0442
3190.0,0.0439
3189.0,0.0434
3188.0,0.0428
3187.0,0.0423
3186.0,0.0417
3185.0,0.0413
3184.0,0.0409
3183.0,0.0405
3182.0,0.0402
3181.0,0.0398
3180.0,0.0395
3179.0,0.0392
3178.0,0.0389
3177.0,0.0385
3176.0,0.0382
3175.0,0.0378
3174.0,0.0374
3173.0,0.0371
3172.0,0.0367
3171.0,0.0362
3170.0,0.0358
3169.0,0.0353
3168.0,0.0349
3167.0,0.0345
3166.0,0.0342
3165.0,0.0339
3164.0,0.0337
3163.0,0.0334
3162.0,0.0331
3161.0,0.0328
3160.0,0.0324
3159.0,0.032
3158.0,0.0316
3157.0,0.0313
3156.0,0.0309
3155.0,0.0306
3154.0,0.0303
3153.0,0.03
3152.0,0.0297
3151.0,0.0294
3150.0,0.0291
3149.0,0.0288
3148.0,0.0285
3147.0,0.0282
3146.0,0.0279
3145.0,0.0276
3144.0,0.0273
3143.0,0.0269
3142.0,0.0265
3141.0,0.0262
3140.0,0.026
3139.0,0.0258
3138.0,0.0256
3137.0,0.0254
3136.0,0.0251
3135.0,0.0247
3134.0,0.0244
3133.0,0.0242
3132.0,0.024
3131.0,0.0237
3130.0,0.0235
3129.0,0.0232
3128.0,0.0229
3127.0,0.0226
3126.0,0.0224
3125.0,0.0222
3124.0,0.0219
3123.0,0.0217
3122.0,0.0214
3121.0,0.0211
3120.0,0.0208
3119.0,0.0205
3118.0,0.0203
3117.0,0.0201
3116.0,0.02
3115.0,0.0198
3114.0,0.0195
3113.0,0.0193
3112.0,0.019
3111.0,0.0188
3110.0,0.0186
3109.0,0.0184
3108.0,0.0181
3107.0,0.0179
3106.0,0.0177
3105.0,0.0174
3104.0,0.0172
3103.0,0.017
3102.0,0.0169
3101.0,0.0167
3100.0,0.0165
3099.0,0.0163
3098.0,0.016
3097.0,0.0157
3096.0,0.0155
3095.0,0.0153
3094.0,0.0151
3093.0,0.015
3092.0,0.0148
3091.0,0.0146
3090.0,0.0144
3089.0,0.0143
3088.0,0.0142
3087.0,0.014
3086.0,0.0139
3085.0,0.0138
3084.0,0.0136
3083.0,0.0135
3082.0,0.0134
3081.0,0.0133
3080.0,0.0132
3079.0,0.013
3078.0,0.0129
3077.0,0.0127
3076.0,0.0125
3075.0,0.0122
3074.0,0.012
3073.0,0.0118
3072.0,0.0117
3071.0,0.0115
3070.0,0.0113
3069.0,0.0112
3068.0,0.0111
3067.0,0.0109
3066.0,0.0108
3065.0,0.0106
3064.0,0.0104
3063.0,0.0102
3062.0,0.01
3061.0,0.0099
3060.0,0.0098
3059.0,0.0097
3058.0,0.0096
3057.0,0.0095
3056.0,0.0094
3055.0,0.0093
3054.0,0.0091
3053.0,0.0089
3052.0,0.0088
3051.0,0.0086
3050.0,0.0085
3049.0,0.0083
3048.0,0.0082
3047.0,0.008
3046.0,0.0079
3045.0,0.0078
3044.0,0.0077
3043.0,0.0077
3042.0,0.0077
3041.0,0.0077
3040.0,0.0076
3039.0,0.0075
3038.0,0.0073
3037.0,0.0071
3036.0,0.007
3035.0,0.0069
3034.0,0.0068
3033.0,0.0068
3032.0,0.0067
3031.0,0.0066
3030.0,0.0065
3029.0,0.0065
3028.0,0.0065
3027.0,0.0065
3026.0,0.0065
3025.0,0.0065
3024.0,0.0066
3023.0,0.0067
3022.0,0.0068
3021.0,0.0069
3020.0,0.007
3019.0,0.0072
3018.0,0.0074
3017.0,0.0076
3016.0,0.0079
3015.0,0.0082
3014.0,0.0085
3013.0,0.0089
3012.0,0.0093
3011.0,0.0098
3010.0,0.0102
3009.0,0.0106
3008.0,0.0111
3007.0,0.0118
3006.0,0.0125
3005.0,0.0132
3004.0,0.0139
3003.0,0.0145
3002.0,0.0151
3001.0,0.0156
3000.0,0.0162
2999.0,0.0169
2998.0,0.0174
2997.0,0.0179
2996.0,0.0181
2995.0,0.0182
2994.0,0.0182
2993.0,0.018
2992.0,0.0176
2991.0,0.017
2990.0,0.0164
2989.0,0.0156
2988.0,0.0149
2987.0,0.0141
2986.0,0.0133
2985.0,0.0126
2984.0,0.012
2983.0,0.0114
2982.0,0.0109
2981.0,0.0105
2980.0,0.0101
2979.0,0.0098
2978.0,0.0095
2977.0,0.0093
2976.0,0.0091
2975.0,0.0089
2974.0,0.0087
2973.0,0.0085
2972.0,0.0084
2971.0,0.0083
2970.0,0.0082
2969.0,0.0081
2968.0,0.0081
2967.0,0.0081
2966.0,0.0082
2965.0,0.0082
2964.0,0.0082
2963.0,0.0083
2962.0,0.0084
2961.0,0.0086
2960.0,0.0087
2959.0,0.0089
2958.0,0.009
2957.0,0.0093
2956.0,0.0096
2955.0,0.01
2954.0,0.0104
2953.0,0.0109
2952.0,0.0114
2951.0,0.0119
2950.0,0.0125
2949.0,0.0131
2948.0,0.0137
2947.0,0.0142
2946.0,0.0145
2945.0,0.0146
2944.0,0.0144
2943.0,0.0141
2942.0,0.0136
2941.0,0.013
2940.0,0.0124
2939.0,0.0117
2938.0,0.011
2937.0,0.0104
2936.0,0.0097
2935.0,0.0091
2934.0,0.0086
2933.0,0.0081
2932.0,0.0077
2931.0,0.0074
2930.0,0.0072
2929.0,0.0069
2928.0,0.0067
2927.0,0.0065
2926.0,0.0063
2925.0,0.0061
2924.0,0.0059
2923.0,0.0057
2922.0,0.0054
2921.0,0.0052
2920.0,0.005
2919.0,0.0047
2918.0,0.0045
2917.0,0.0043
2916.0,0.0041
2915.0,0.0039
2914.0,0.0037
2913.0,0.0036
2912.0,0.0035
2911.0,0.0034
2910.0,0.0034
2909.0,0.0033
2908.0,0.0032
2907.0,0.0031
2906.0,0.0031
2905.0,0.003
2904.0,0.003
2903.0,0.0029
2902.0,0.0029
2901.0,0.0028
2900.0,0.0028
2899.0,0.0027
2898.0,0.0026
2897.0,0.0026
2896.0,0.0026
2895.0,0.0025
2894.0,0.0024
2893.0,0.0023
2892.0,0.0022
2891.0,0.0022
2890.0,0.0022
2889.0,0.0023
2888.0,0.0024
2887.0,0.0025
2886.0,0.0027
2885.0,0.0029
2884.0,0.0031
2883.0,0.0032
2882.0,0.0033
2881.0,0.0033
2880.0,0.0032
2879.0,0.0031
2878.0,0.003
2877.0,0.0029
2876.0,0.0027
2875.0,0.0024
2874.0,0.0022
2873.0,0.0019
2872.0,0.0017
2871.0,0.0015
2870.0,0.0013
2869.0,0.0011
2868.0,0.0008
2867.0,0.0006
2866.0,0.0005
2865.0,0.0004
2864.0,0.0004
2863.0,0.0004
2862.0,0.0004
2861.0,0.0004
2860.0,0.0003
2859.0,0.0002
2858.0,0.0001
2857.0,0.0001
2856.0,0.0001
2855.0,0.0001
2854.0,0.0001
2853.0,0.0001
2852.0,-0.0001
2851.0,-0.0003
2850.0,-0.0004
2849.0,-0.0005
2848.0,-0.0006
2847.0,-0.0005
2846.0,-0.0006
2845.0,-0.0006
2844.0,-0.0007
2843.0,-0.0009
2842.0,-0.001
2841.0,-0.001
2840.0,-0.0011
2839.0,-0.0011
2838.0,-0.0011
2837.0,-0.0012
2836.0,-0.0013
2835.0,-0.0013
2834.0,-0.0014
2833.0,-0.0014
2832.0,-0.0015
2831.0,-0.0015
2830.0,-0.0016
2829.0,-0.0016
2828.0,-0.0016
2827.0,-0.0016
2826.0,-0.0016
2825.0,-0.0015
2824.0,-0.0015
2823.0,-0.0016
2822.0,-0.0017
2821.0,-0.0017
2820.0,-0.0018
2819.0,-0.0018
2818.0,-0.0018
2817.0,-0.0018
2816.0,-0.0019
2815.0,-0.002
2814.0,-0.002
2813.0,-0.0021
2812.0,-0.0021
2811.0,-0.0021
2810.0,-0.0022
2809.0,-0.0022
2808.0,-0.0022
2807.0,-0.0023
2806.0,-0.0023
2805.0,-0.0023
2804.0,-0.0023
2803.0,-0.0023
2802.0,-0.0023
2801.0,-0.0023
2800.0,-0.0023
2799.0,-0.0024
2798.0,-0.0024
2797.0,-0.0024
2796.0,-0.0025
2795.0,-0.0025
2794.0,-0.0025
2793.0,-0.0026
2792.0,-0.0026
2791.0,-0.0026
2790.0,-0.0027
2789.0,-0.0027
2788.0,-0.0028
2787.0,-0.0028
2786.0,-0.0028
2785.0,-0.0028
2784.0,-0.0029
2783.0,-0.0029
2782.0,-0.003
2781.0,-0.003
2780.0,-0.003
2779.0,-0.0031
2778.0,-0.0032
2777.0,-0.0032
2776.0,-0.0033
2775.0,-0.0033
2774.0,-0.0033
2773.0,-0.0033
2772.0,-0.0034
2771.0,-0.0034
2770.0,-0.0034
2769.0,-0.0033
2768.0,-0.0032
2767.0,-0.0032
2766.0,-0.0032
2765.0,-0.0032
2764.0,-0.0032
2763.0,-0.0032
2762.0,-0.0032
2761.0,-0.0032
2760.0,-0.0032
2759.0,-0.0032
2758.0,-0.0033
2757.0,-0.0034
2756.0,-0.0035
2755.0,-0.0035
2754.0,-0.0034
2753.0,-0.0034
2752.0,-0.0034
2751.0,-0.0035
2750.0,-0.0035
2749.0,-0.0036
2748.0,-0.0035
2747.0,-0.0035
2746.0,-0.0034
2745.0,-0.0034
2744.0,-0.0034
2743.0,-0.0034
2742.0,-0.0034
2741.0,-0.0034
2740.0,-0.0035
2739.0,-0.0035
2738.0,-0.0036
2737.0,-0.0035
2736.0,-0.0035
2735.0,-0.0034
2734.0,-0.0034
2733.0,-0.0034
2732.0,-0.0035
2731.0,-0.0036
2730.0,-0.0036
2729.0,-0.0036
2728.0,-0.0036
2727.0,-0.0036
2726.0,-0.0036
2725.0,-0.0036
2724.0,-0.0037
2723.0,-0.0037
2722.0,-0.0038
2721.0,-0.0037
2720.0,-0.0037
2719.0,-0.0037
2718.0,-0.0037
2717.0,-0.0037
2716.0,-0.0038
2715.0,-0.0039
2714.0,-0.0039
2713.0,-0.004
2712.0,-0.004
2711.0,-0.004
2710.0,-0.004
2709.0,-0.004
2708.0,-0.0039
2707.0,-0.0039
2706.0,-0.0039
2705.0,-0.0038
2704.0,-0.0038
2703.0,-0.0039
2702.0,-0.0039
2701.0,-0.0039
2700.0,-0.0039
2699.0,-0.0039
2698.0,-0.0039
2697.0,-0.0039
2696.0,-0.0039
2695.0,-0.0039
2694.0,-0.0039
2693.0,-0.0039
2692.0,-0.0039
2691.0,-0.0039
2690.0,-0.0039
2689.0,-0.004
2688.0,-0.004
2687.0,-0.004
2686.0,-0.004
2685.0,-0.004
2684.0,-0.004
2683.0,-0.004
2682.0,-0.004
2681.0,-0.0039
2680.0,-0.0039
2679.0,-0.0039
2678.0,-0.0039
2677.0,-0.0039
2676.0,-0.0039
2675.0,-0.0039
2674.0,-0.0039
2673.0,-0.0039
2672.0,-0.0039
2671.0,-0.004
2670.0,-0.004
2669.0,-0.0041
2668.0,-0.004
2667.0,-0.004
2666.0,-0.0039
2665.0,-0.0039
2664.0,-0.0039
2663.0,-0.0039
2662.0,-0.0039
2661.0,-0.0039
2660.0,-0.004
2659.0,-0.004
2658.0,-0.004
2657.0,-0.004
2656.0,-0.004
2655.0,-0.004
2654.0,-0.004
2653.0,-0.004
2652.0,-0.004
2651.0,-0.004
2650.0,-0.004
2649.0,-0.0039
2648.0,-0.004
2647.0,-0.004
2646.0,-0.0041
2645.0,-0.0041
2644.0,-0.0041
2643.0,-0.004
2642.0,-0.004
2641.0,-0.004
2640.0,-0.0041
2639.0,-0.0042
2638.0,-0.0042
2637.0,-0.0042
2636.0,-0.0041
2635.0,-0.0041
2634.0,-0.0041
2633.0,-0.0041
2632.0,-0.0042
2631.0,-0.0042
2630.0,-0.0042
2629.0,-0.0041
2628.0,-0.0041
2627.0,-0.004
2626.0,-0.0041
2625.0,-0.0041
2624.0,-0.0042
2623.0,-0.0042
2622.0,-0.0042
2621.0,-0.0042
2620.0,-0.0042
2619.0,-0.0042
2618.0,-0.0042
2617.0,-0.0042
2616.0,-0.0043
2615.0,-0.0043
2614.0,-0.0043
2613.0,-0.0043
2612.0,-0.0043
2611.0,-0.0043
2610.0,-0.0044
2609.0,-0.0044
2608.0,-0.0044
2607.0,-0.0044
2606.0,-0.0043
2605.0,-0.0043
2604.0,-0.0043
2603.0,-0.0044
2602.0,-0.0044
2601.0,-0.0043
2600.0,-0.0043
2599.0,-0.0043
2598.0,-0.0043
2597.0,-0.0043
2596.0,-0.0043
2595.0,-0.0043
2594.0,-0.0043
2593.0,-0.0042
2592.0,-0.0042
2591.0,-0.0042
2590.0,-0.0042
2589.0,-0.0043
2588.0,-0.0043
2587.0,-0.0043
2586.0,-0.0043
2585.0,-0.0043
2584.0,-0.0043
2583.0,-0.0043
2582.0,-0.0043
2581.0,-0.0043
2580.0,-0.0044
2579.0,-0.0044
2578.0,-0.0044
2577.0,-0.0043
2576.0,-0.0043
2575.0,-0.0042
2574.0,-0.0042
2573.0,-0.0043
2572.0,-0.0043
2571.0,-0.0044
2570.0,-0.0044
2569.0,-0.0044
2568.0,-0.0044
2567.0,-0.0044
2566.0,-0.0043
2565.0,-0.0043
2564.0,-0.0043
2563.0,-0.0043
2562.0,-0.0044
2561.0,-0.0044
2560.0,-0.0044
2559.0,-0.0044
2558.0,-0.0043
2557.0,-0.0043
2556.0,-0.0044
2555.0,-0.0044
2554.0,-0.0045
2553.0,-0.0045
2552.0,-0.0046
2551.0,-0.0046
2550.0,-0.0045
2549.0,-0.0045
2548.0,-0.0044
2547.0,-0.0043
2546.0,-0.0043
2545.0,-0.0043
2544.0,-0.0043
2543.0,-0.0044
2542.0,-0.0044
2541.0,-0.0044
2540.0,-0.0044
2539.0,-0.0044
2538.0,-0.0044
2537.0,-0.0044
2536.0,-0.0044
2535.0,-0.0045
2534.0,-0.0045
2533.0,-0.0045
2532.0,-0.0045
2531.0,-0.0044
2530.0,-0.0044
2529.0,-0.0044
2528.0,-0.0043
2527.0,-0.0043
2526.0,-0.0044
2525.0,-0.0044
2524.0,-0.0044
2523.0,-0.0044
2522.0,-0.0044
2521.0,-0.0044
2520.0,-0.0044
2519.0,-0.0044
2518.0,-0.0044
2517.0,-0.0045
2516.0,-0.0044
2515.0,-0.0044
2514.0,-0.0044
2513.0,-0.0044
2512.0,-0.0043
2511.0,-0.0043
2510.0,-0.0043
2509.0,-0.0043
2508.0,-0.0043
2507.0,-0.0043
2506.0,-0.0043
2505.0,-0.0042
2504.0,-0.0042
2503.0,-0.0042
2502.0,-0.0042
2501.0,-0.0042
2500.0,-0.0042
2499.0,-0.0042
2498.0,-0.0043
2497.0,-0.0043
2496.0,-0.0043
2495.0,-0.0044
2494.0,-0.0044
2493.0,-0.0044
2492.0,-0.0044
2491.0,-0.0043
2490.0,-0.0043
2489.0,-0.0042
2488.0,-0.0042
2487.0,-0.0041
2486.0,-0.0042
2485.0,-0.0042
2484.0,-0.0042
2483.0,-0.0042
2482.0,-0.0043
2481.0,-0.0043
2480.0,-0.0043
2479.0,-0.0042
2478.0,-0.0042
2477.0,-0.0042
2476.0,-0.0043
2475.0,-0.0043
2474.0,-0.0043
2473.0,-0.0043
2472.0,-0.0042
2471.0,-0.0042
2470.0,-0.0043
2469.0,-0.0043
2468.0,-0.0043
2467.0,-0.0043
2466.0,-0.0043
2465.0,-0.0043
2464.0,-0.0043
2463.0,-0.0043
2462.0,-0.0043
2461.0,-0.0042
2460.0,-0.0042
2459.0,-0.0042
2458.0,-0.0042
2457.0,-0.0043
2456.0,-0.0043
2455.0,-0.0042
2454.0,-0.0042
2453.0,-0.0041
2452.0,-0.0041
2451.0,-0.0041
2450.0,-0.0041
2449.0,-0.0042
2448.0,-0.0042
2447.0,-0.0042
2446.0,-0.0041
2445.0,-0.004
2444.0,-0.004
2443.0,-0.004
2442.0,-0.004
2441.0,-0.004
2440.0,-0.004
2439.0,-0.0041
2438.0,-0.004
2437.0,-0.004
2436.0,-0.0039
2435.0,-0.0039
2434.0,-0.0038
2433.0,-0.0038
2432.0,-0.0038
2431.0,-0.0037
2430.0,-0.0037
2429.0,-0.0036
2428.0,-0.0036
2427.0,-0.0036
2426.0,-0.0037
2425.0,-0.0037
2424.0,-0.0036
2423.0,-0.0036
2422.0,-0.0035
2421.0,-0.0035
2420.0,-0.0035
2419.0,-0.0035
2418.0,-0.0035
2417.0,-0.0036
2416.0,-0.0035
2415.0,-0.0035
2414.0,-0.0034
2413.0,-0.0034
2412.0,-0.0034
2411.0,-0.0034
2410.0,-0.0034
2409.0,-0.0033
2408.0,-0.0033
2407.0,-0.0033
2406.0,-0.0033
2405.0,-0.0033
2404.0,-0.0032
2403.0,-0.0033
2402.0,-0.0032
2401.0,-0.0032
2400.0,-0.0031
2399.0,-0.0031
2398.0,-0.0031
2397.0,-0.0031
2396.0,-0.0031
2395.0,-0.0031
2394.0,-0.0031
2393.0,-0.0031
2392.0,-0.0031
2391.0,-0.0032
2390.0,-0.0033
2389.0,-0.0034
2388.0,-0.0035
2387.0,-0.0037
2386.0,-0.0039
2385.0,-0.0041
2384.0,-0.0043
2383.0,-0.0044
2382.0,-0.0043
2381.0,-0.0041
2380.0,-0.0037
2379.0,-0.0034
2378.0,-0.0032
2377.0,-0.0031
2376.0,-0.0032
2375.0,-0.0034
2374.0,-0.0037
2373.0,-0.0042
2372.0,-0.0045
2371.0,-0.0049
2370.0,-0.0053
2369.0,-0.0056
2368.0,-0.0056
2367.0,-0.0052
2366.0,-0.0049
2365.0,-0.0045
2364.0,-0.0042
2363.0,-0.0042
2362.0,-0.0045
2361.0,-0.0047
2360.0,-0.0047
2359.0,-0.0048
2358.0,-0.0045
2357.0,-0.0038
2356.0,-0.0034
2355.0,-0.0039
2354.0,-0.0048
2353.0,-0.005
2352.0,-0.0047
2351.0,-0.0046
2350.0,-0.0046
2349.0,-0.0047
2348.0,-0.0046
2347.0,-0.0044
2346.0,-0.0046
2345.0,-0.0049
2344.0,-0.0052
2343.0,-0.0054
2342.0,-0.0049
2341.0,-0.004
2340.0,-0.0033
2339.0,-0.0034
2338.0,-0.004
2337.0,-0.0046
2336.0,-0.0047
2335.0,-0.0045
2334.0,-0.0039
2333.0,-0.0032
2332.0,-0.0029
2331.0,-0.0035
2330.0,-0.0046
2329.0,-0.0057
2328.0,-0.0063
2327.0,-0.0063
2326.0,-0.0058
2325.0,-0.005
2324.0,-0.0042
2323.0,-0.0036
2322.0,-0.0035
2321.0,-0.0037
2320.0,-0.0043
2319.0,-0.0049
2318.0,-0.0054
2317.0,-0.0056
2316.0,-0.0055
2315.0,-0.0054
2314.0,-0.0054
2313.0,-0.0056
2312.0,-0.0058
2311.0,-0.006
2310.0,-0.0061
2309.0,-0.006
2308.0,-0.0058
2307.0,-0.0055
2306.0,-0.0052
2305.0,-0.0051
2304.0,-0.0053
2303.0,-0.0055
2302.0,-0.0057
2301.0,-0.0057
2300.0,-0.0056
2299.0,-0.0055
2298.0,-0.0055
2297.0,-0.0054
2296.0,-0.0053
2295.0,-0.0052
2294.0,-0.005
2293.0,-0.0049
2292.0,-0.0047
2291.0,-0.0045
2290.0,-0.0043
2289.0,-0.0041
2288.0,-0.004
2287.0,-0.0038
2286.0,-0.0036
2285.0,-0.0035
2284.0,-0.0034
2283.0,-0.0034
2282.0,-0.0034
2281.0,-0.0034
2280.0,-0.0035
2279.0,-0.0035
2278.0,-0.0036
2277.0,-0.0036
2276.0,-0.0037
2275.0,-0.0037
2274.0,-0.0037
2273.0,-0.0036
2272.0,-0.0036
2271.0,-0.0036
2270.0,-0.0035
2269.0,-0.0035
2268.0,-0.0035
2267.0,-0.0034
2266.0,-0.0034
2265.0,-0.0034
2264.0,-0.0034
2263.0,-0.0034
2262.0,-0.0034
2261.0,-0.0034
2260.0,-0.0034
2259.0,-0.0035
2258.0,-0.0036
2257.0,-0.0036
2256.0,-0.0036
2255.0,-0.0035
2254.0,-0.0034
2253.0,-0.0034
2252.0,-0.0033
2251.0,-0.0033
2250.0,-0.0034
2249.0,-0.0035
2248.0,-0.0035
2247.0,-0.0035
2246.0,-0.0034
2245.0,-0.0034
2244.0,-0.0034
2243.0,-0.0035
2242.0,-0.0035
2241.0,-0.0035
2240.0,-0.0035
2239.0,-0.0035
2238.0,-0.0035
2237.0,-0.0035
2236.0,-0.0036
2235.0,-0.0036
2234.0,-0.0036
2233.0,-0.0036
2232.0,-0.0037
2231.0,-0.0037
2230.0,-0.0037
2229.0,-0.0037
2228.0,-0.0037
2227.0,-0.0037
2226.0,-0.0038
2225.0,-0.0038
2224.0,-0.0038
2223.0,-0.0039
2222.0,-0.0039
2221.0,-0.0039
2220.0,-0.0039
2219.0,-0.0039
2218.0,-0.004
2217.0,-0.004
2216.0,-0.004
2215.0,-0.004
2214.0,-0.0041
2213.0,-0.0041
2212.0,-0.0042
2211.0,-0.0043
2210.0,-0.0043
2209.0,-0.0043
2208.0,-0.0043
2207.0,-0.0044
2206.0,-0.0044
2205.0,-0.0044
2204.0,-0.0045
2203.0,-0.0046
2202.0,-0.0046
2201.0,-0.0046
2200.0,-0.0046
2199.0,-0.0046
2198.0,-0.0047
2197.0,-0.0047
2196.0,-0.0047
2195.0,-0.0047
2194.0,-0.0047
2193.0,-0.0047
2192.0,-0.0047
2191.0,-0.0047
2190.0,-0.0048
2189.0,-0.0048
2188.0,-0.0049
2187.0,-0.0049
2186.0,-0.005
2185.0,-0.0049
2184.0,-0.0049
2183.0,-0.0049
2182.0,-0.0048
2181.0,-0.0049
2180.0,-0.0049
2179.0,-0.0049
2178.0,-0.005
2177.0,-0.005
2176.0,-0.005
2175.0,-0.0051
2174.0,-0.0051
2173.0,-0.0051
2172.0,-0.0051
2171.0,-0.0051
2170.0,-0.0052
2169.0,-0.0052
2168.0,-0.0051
2167.0,-0.0051
2166.0,-0.0051
2165.0,-0.0051
2164.0,-0.0052
2163.0,-0.0052
2162.0,-0.0053
2161.0,-0.0053
2160.0,-0.0053
2159.0,-0.0053
2158.0,-0.0053
2157.0,-0.0053
2156.0,-0.0053
2155.0,-0.0053
2154.0,-0.0053
2153.0,-0.0053
2152.0,-0.0053
2151.0,-0.0053
2150.0,-0.0053
2149.0,-0.0053
2148.0,-0.0054
2147.0,-0.0054
2146.0,-0.0053
2145.0,-0.0053
2144.0,-0.0053
2143.0,-0.0053
2142.0,-0.0053
2141.0,-0.0053
2140.0,-0.0053
2139.0,-0.0053
2138.0,-0.0053
2137.0,-0.0053
2136.0,-0.0053
2135.0,-0.0053
2134.0,-0.0052
2133.0,-0.0052
2132.0,-0.0052
2131.0,-0.0052
2130.0,-0.0052
2129.0,-0.0051
2128.0,-0.0051
2127.0,-0.0051
2126.0,-0.0051
2125.0,-0.0052
2124.0,-0.0052
2123.0,-0.0052
2122.0,-0.0053
2121.0,-0.0053
2120.0,-0.0053
2119.0,-0.0053
2118.0,-0.0053
2117.0,-0.0053
2116.0,-0.0053
2115.0,-0.0054
2114.0,-0.0054
2113.0,-0.0054
2112.0,-0.0055
2111.0,-0.0055
2110.0,-0.0055
2109.0,-0.0055
2108.0,-0.0055
2107.0,-0.0055
2106.0,-0.0055
2105.0,-0.0054
2104.0,-0.0054
2103.0,-0.0054
2102.0,-0.0054
2101.0,-0.0053
2100.0,-0.0053
2099.0,-0.0053
2098.0,-0.0052
2097.0,-0.0052
2096.0,-0.0052
2095.0,-0.0053
2094.0,-0.0054
2093.0,-0.0054
2092.0,-0.0054
2091.0,-0.0054
2090.0,-0.0054
2089.0,-0.0054
2088.0,-0.0054
2087.0,-0.0054
2086.0,-0.0054
2085.0,-0.0054
2084.0,-0.0054
2083.0,-0.0054
2082.0,-0.0055
2081.0,-0.0055
2080.0,-0.0055
2079.0,-0.0055
2078.0,-0.0055
2077.0,-0.0056
2076.0,-0.0056
2075.0,-0.0056
2074.0,-0.0056
2073.0,-0.0057
2072.0,-0.0057
2071.0,-0.0057
2070.0,-0.0058
2069.0,-0.0058
2068.0,-0.0059
2067.0,-0.0059
2066.0,-0.0059
2065.0,-0.0059
2064.0,-0.006
2063.0,-0.0061
2062.0,-0.0061
2061.0,-0.0061
2060.0,-0.0062
2059.0,-0.0062
2058.0,-0.0063
2057.0,-0.0064
2056.0,-0.0065
2055.0,-0.0065
2054.0,-0.0066
2053.0,-0.0066
2052.0,-0.0067
2051.0,-0.0067
2050.0,-0.0067
2049.0,-0.0067
2048.0,-0.0068
2047.0,-0.007
2046.0,-0.007
2045.0,-0.0071
2044.0,-0.0072
2043.0,-0.0072
2042.0,-0.0072
2041.0,-0.0072
2040.0,-0.0073
2039.0,-0.0074
2038.0,-0.0074
2037.0,-0.0075
2036.0,-0.0075
2035.0,-0.0076
2034.0,-0.0076
2033.0,-0.0076
2032.0,-0.0077
2031.0,-0.0077
2030.0,-0.0077
2029.0,-0.0078
2028.0,-0.0078
2027.0,-0.0079
2026.0,-0.0079
2025.0,-0.008
2024.0,-0.008
2023.0,-0.008
2022.0,-0.008
2021.0,-0.008
2020.0,-0.008
2019.0,-0.008
2018.0,-0.0079
2017.0,-0.0079
2016.0,-0.008
2015.0,-0.0081
2014.0,-0.0081
2013.0,-0.0081
2012.0,-0.0081
2011.0,-0.0081
2010.0,-0.008
2009.0,-0.008
2008.0,-0.0081
2007.0,-0.0081
2006.0,-0.0081
2005.0,-0.0081
2004.0,-0.0082
2003.0,-0.0082
2002.0,-0.0082
2001.0,-0.0082
2000.0,-0.0082
1999.0,-0.0082
1998.0,-0.0082
1997.0,-0.0082
1996.0,-0.0083
1995.0,-0.0083
1994.0,-0.0083
1993.0,-0.0083
1992.0,-0.0084
1991.0,-0.0084
1990.0,-0.0085
1989.0,-0.0085
1988.0,-0.0085
1987.0,-0.0085
1986.0,-0.0085
1985.0,-0.0085
1984.0,-0.0086
1983.0,-0.0086
1982.0,-0.0086
1981.0,-0.0086
1980.0,-0.0085
1979.0,-0.0085
1978.0,-0.0085
1977.0,-0.0085
1976.0,-0.0085
1975.0,-0.0085
1974.0,-0.0085
1973.0,-0.0085
1972.0,-0.0085
1971.0,-0.0085
1970.0,-0.0084
1969.0,-0.0084
1968.0,-0.0085
1967.0,-0.0086
1966.0,-0.0087
1965.0,-0.0087
1964.0,-0.0087
1963.0,-0.0087
1962.0,-0.0088
1961.0,-0.0088
1960.0,-0.0088
1959.0,-0.0089
1958.0,-0.0089
1957.0,-0.009
1956.0,-0.0091
1955.0,-0.0091
1954.0,-0.0092
1953.0,-0.0092
1952.0,-0.0093
1951.0,-0.0093
1950.0,-0.0093
1949.0,-0.0094
1948.0,-0.0095
1947.0,-0.0095
1946.0,-0.0095
1945.0,-0.0095
1944.0,-0.0095
1943.0,-0.0096
1942.0,-0.0097
1941.0,-0.0097
1940.0,-0.0098
1939.0,-0.0098
1938.0,-0.0099
1937.0,-0.0099
1936.0,-0.01
1935.0,-0.01
1934.0,-0.01
1933.0,-0.0101
1932.0,-0.0102
1931.0,-0.0102
1930.0,-0.0103
1929.0,-0.0103
1928.0,-0.0102
1927.0,-0.0102
1926.0,-0.0102
1925.0,-0.0102
1924.0,-0.0102
1923.0,-0.0102
1922.0,-0.0102
1921.0,-0.0102
1920.0,-0.0102
1919.0,-0.0102
1918.0,-0.0103
1917.0,-0.0103
1916.0,-0.0103
1915.0,-0.0103
1914.0,-0.0103
1913.0,-0.0104
1912.0,-0.0103
1911.0,-0.0103
1910.0,-0.0103
1909.0,-0.0104
1908.0,-0.0104
1907.0,-0.0104
1906.0,-0.0104
1905.0,-0.0104
1904.0,-0.0104
1903.0,-0.0104
1902.0,-0.0105
1901.0,-0.0105
1900.0,-0.0105
1899.0,-0.0105
1898.0,-0.0105
1897.0,-0.0105
1896.0,-0.0106
1895.0,-0.0107
1894.0,-0.0107
1893.0,-0.0107
1892.0,-0.0106
1891.0,-0.0106
1890.0,-0.0107
1889.0,-0.0107
1888.0,-0.0107
1887.0,-0.0107
1886.0,-0.0108
1885.0,-0.0108
1884.0,-0.0108
1883.0,-0.0107
1882.0,-0.0107
1881.0,-0.0107
1880.0,-0.0107
1879.0,-0.0108
1878.0,-0.0108
1877.0,-0.0108
1876.0,-0.0108
1875.0,-0.0108
1874.0,-0.0107
1873.0,-0.0107
1872.0,-0.0107
1871.0,-0.0106
1870.0,-0.0107
1869.0,-0.0107
1868.0,-0.0107
1867.0,-0.0107
1866.0,-0.0107
1865.0,-0.0107
1864.0,-0.0106
1863.0,-0.0106
1862.0,-0.0105
1861.0,-0.0105
1860.0,-0.0104
1859.0,-0.0104
1858.0,-0.0104
1857.0,-0.0104
1856.0,-0.0103
1855.0,-0.0103
1854.0,-0.0103
1853.0,-0.0102
1852.0,-0.0101
1851.0,-0.01
1850.0,-0.0099
1849.0,-0.0098
1848.0,-0.0098
1847.0,-0.0097
1846.0,-0.0097
1845.0,-0.0096
1844.0,-0.0095
1843.0,-0.0094
1842.0,-0.0094
1841.0,-0.0092
1840.0,-0.009
1839.0,-0.0089
1838.0,-0.0089
1837.0,-0.0088
1836.0,-0.0086
1835.0,-0.0084
1834.0,-0.0082
1833.0,-0.008
1832.0,-0.0078
1831.0,-0.0077
1830.0,-0.0076
1829.0,-0.0075
1828.0,-0.0073
1827.0,-0.0071
1826.0,-0.0069
1825.0,-0.0067
1824.0,-0.0065
1823.0,-0.0063
1822.0,-0.0062
1821.0,-0.006
1820.0,-0.0057
1819.0,-0.0055
1818.0,-0.0054
1817.0,-0.0052
1816.0,-0.005
1815.0,-0.0049
1814.0,-0.0048
1813.0,-0.0046
1812.0,-0.0043
1811.0,-0.0041
1810.0,-0.0039
1809.0,-0.0036
1808.0,-0.0033
1807.0,-0.0031
1806.0,-0.0029
1805.0,-0.0026
1804.0,-0.0022
1803.0,-0.0018
1802.0,-0.0015
1801.0,-0.0011
1800.0,-0.0006
1799.0,-0.0001
1798.0,0.0004
1797.0,0.001
1796.0,0.0017
1795.0,0.0025
1794.0,0.0033
1793.0,0.0046
1792.0,0.0066
1791.0,0.0085
1790.0,0.0103
1789.0,0.0122
1788.0,0.0144
1787.0,0.017
1786.0,0.0201
1785.0,0.0237
1784.0,0.0276
1783.0,0.0314
1782.0,0.0354
1781.0,0.0402
1780.0,0.0453
1779.0,0.0498
1778.0,0.0537
1777.0,0.0577
1776.0,0.0617
1775.0,0.0654
1774.0,0.0694
1773.0,0.0753
1772.0,0.0824
1771.0,0.0883
1770.0,0.0934
1769.0,0.0995
1768.0,0.1071
1767.0,0.1149
1766.0,0.122
1765.0,0.1291
1764.0,0.1375
1763.0,0.1484
1762.0,0.1618
1761.0,0.175
1760.0,0.1856
1759.0,0.1944
1758.0,0.2037
1757.0,0.2145
1756.0,0.2241
1755.0,0.2297
1754.0,0.2328
1753.0,0.2358
1752.0,0.2394
1751.0,0.2422
1750.0,0.2437
1749.0,0.2443
1748.0,0.2432
1747.0,0.2397
1746.0,0.2345
1745.0,0.2283
1744.0,0.2204
1743.0,0.2111
1742.0,0.2011
1741.0,0.1899
1740.0,0.1771
1739.0,0.1645
1738.0,0.1545
1737.0,0.1463
1736.0,0.1375
1735.0,0.1258
1734.0,0.1135
1733.0,0.1051
1732.0,0.0993
1731.0,0.0941
1730.0,0.0891
1729.0,0.0844
1728.0,0.0802
1727.0,0.0767
1726.0,0.0737
1725.0,0.071
1724.0,0.0683
1723.0,0.0659
1722.0,0.0639
1721.0,0.0622
1720.0,0.0603
1719.0,0.0583
1718.0,0.0563
1717.0,0.0547
1716.0,0.053
1715.0,0.0514
1714.0,0.05
1713.0,0.0488
1712.0,0.0474
1711.0,0.046
1710.0,0.0448
1709.0,0.0437
1708.0,0.0425
1707.0,0.0413
1706.0,0.0403
1705.0,0.0395
1704.0,0.0386
1703.0,0.0377
1702.0,0.0369
1701.0,0.0363
1700.0,0.0359
1699.0,0.0354
1698.0,0.035
1697.0,0.0347
1696.0,0.0346
1695.0,0.0344
1694.0,0.0342
1693.0,0.0339
1692.0,0.0336
1691.0,0.0334
1690.0,0.0334
1689.0,0.0334
1688.0,0.0334
1687.0,0.0332
1686.0,0.0331
1685.0,0.0336
1684.0,0.0344
1683.0,0.0348
1682.0,0.0349
1681.0,0.035
1680.0,0.0351
1679.0,0.0351
1678.0,0.0351
1677.0,0.0351
1676.0,0.0356
1675.0,0.0362
1674.0,0.0367
1673.0,0.0368
1672.0,0.0368
1671.0,0.0371
1670.0,0.0378
1669.0,0.0387
1668.0,0.0392
1667.0,0.0393
1666.0,0.0393
1665.0,0.0394
1664.0,0.0397
1663.0,0.0404
1662.0,0.0411
1661.0,0.0416
1660.0,0.0419
1659.0,0.0421
1658.0,0.0423
1657.0,0.0423
1656.0,0.0422
1655.0,0.0422
1654.0,0.0438
1653.0,0.0468
1652.0,0.0485
1651.0,0.0487
1650.0,0.0487
1649.0,0.0489
1648.0,0.05
1647.0,0.0521
1646.0,0.054
1645.0,0.055
1644.0,0.0555
1643.0,0.056
1642.0,0.0565
1641.0,0.057
1640.0,0.0573
1639.0,0.0573
1638.0,0.0569
1637.0,0.0563
1636.0,0.0554
1635.0,0.0542
1634.0,0.0526
1633.0,0.0508
1632.0,0.0489
1631.0,0.047
1630.0,0.045
1629.0,0.0431
1628.0,0.0413
1627.0,0.0397
1626.0,0.0383
1625.0,0.0369
1624.0,0.0354
1623.0,0.0341
1622.0,0.033
1621.0,0.0321
1620.0,0.0311
1619.0,0.0302
1618.0,0.0292
1617.0,0.0284
1616.0,0.0276
1615.0,0.027
1614.0,0.0263
1613.0,0.0256
1612.0,0.0249
1611.0,0.0242
1610.0,0.0237
1609.0,0.0231
1608.0,0.0225
1607.0,0.0219
1606.0,0.0213
1605.0,0.0207
1604.0,0.0202
1603.0,0.0197
1602.0,0.0192
1601.0,0.0187
1600.0,0.0181
1599.0,0.0176
1598.0,0.0172
1597.0,0.0167
1596.0,0.0162
1595.0,0.0157
1594.0,0.0152
1593.0,0.0148
1592.0,0.0143
1591.0,0.0139
1590.0,0.0136
1589.0,0.0132
1588.0,0.0127
1587.0,0.0123
1586.0,0.012
1585.0,0.0116
1584.0,0.0112
1583.0,0.0109
1582.0,0.0105
1581.0,0.0101
1580.0,0.0098
1579.0,0.0095
1578.0,0.0091
1577.0,0.0088
1576.0,0.0085
1575.0,0.0082
1574.0,0.008
1573.0,0.0077
1572.0,0.0074
1571.0,0.0071
1570.0,0.0068
1569.0,0.0065
1568.0,0.0063
1567.0,0.006
1566.0,0.0058
1565.0,0.0056
1564.0,0.0054
1563.0,0.0053
1562.0,0.0052
1561.0,0.0051
1560.0,0.0049
1559.0,0.0048
1558.0,0.0046
1557.0,0.0043
1556.0,0.0041
1555.0,0.0039
1554.0,0.0038
1553.0,0.0037
1552.0,0.0036
1551.0,0.0036
1550.0,0.0035
1549.0,0.0033
1548.0,0.0032
1547.0,0.0031
1546.0,0.003
1545.0,0.0028
1544.0,0.0025
1543.0,0.0023
1542.0,0.0021
1541.0,0.0022
1540.0,0.0025
1539.0,0.0026
1538.0,0.0025
1537.0,0.0022
1536.0,0.0021
1535.0,0.002
1534.0,0.0019
1533.0,0.002
1532.0,0.0019
1531.0,0.0019
1530.0,0.0018
1529.0,0.0017
1528.0,0.0016
1527.0,0.0014
1526.0,0.0012
1525.0,0.001
1524.0,0.001
1523.0,0.0009
1522.0,0.0008
1521.0,0.0008
1520.0,0.0008
1519.0,0.0008
1518.0,0.0008
1517.0,0.0007
1516.0,0.0007
1515.0,0.0006
1514.0,0.0004
1513.0,0.0003
1512.0,0.0004
1511.0,0.0004
1510.0,0.0003
1509.0,0.0003
1508.0,0.0004
1507.0,0.0004
1506.0,0.0003
1505.0,0.0002
1504.0,0.0001
1503.0,0.0
1502.0,-0.0001
1501.0,-0.0001
1500.0,-0.0001
1499.0,-0.0002
1498.0,-0.0003
1497.0,-0.0002
1496.0,-0.0001
1495.0,-0.0001
1494.0,-0.0002
1493.0,-0.0003
1492.0,-0.0003
1491.0,-0.0005
1490.0,-0.0007
1489.0,-0.0007
1488.0,-0.0006
1487.0,-0.0006
1486.0,-0.0006
1485.0,-0.0005
1484.0,-0.0004
1483.0,-0.0003
1482.0,-0.0002
1481.0,-0.0001
1480.0,0.0002
1479.0,0.0004
1478.0,0.0007
1477.0,0.0011
1476.0,0.0016
1475.0,0.0021
1474.0,0.0029
1473.0,0.0045
1472.0,0.0067
1471.0,0.0086
1470.0,0.0103
1469.0,0.0122
1468.0,0.0145
1467.0,0.0174
1466.0,0.0215
1465.0,0.027
1464.0,0.0325
1463.0,0.037
1462.0,0.0406
1461.0,0.044
1460.0,0.0475
1459.0,0.0516
1458.0,0.0574
1457.0,0.0642
1456.0,0.0685
1455.0,0.0701
1454.0,0.071
1453.0,0.0717
1452.0,0.0721
1451.0,0.072
1450.0,0.0714
1449.0,0.0702
1448.0,0.0681
1447.0,0.0653
1446.0,0.0619
1445.0,0.058
1444.0,0.0534
1443.0,0.0484
1442.0,0.0433
1441.0,0.0385
1440.0,0.0342
1439.0,0.0304
1438.0,0.0266
1437.0,0.0227
1436.0,0.0193
1435.0,0.0171
1434.0,0.0156
1433.0,0.0142
1432.0,0.0128
1431.0,0.0115
1430.0,0.0104
1429.0,0.0094
1428.0,0.0086
1427.0,0.008
1426.0,0.0075
1425.0,0.0068
1424.0,0.0061
1423.0,0.0056
1422.0,0.0053
1421.0,0.005
1420.0,0.0046
1419.0,0.0044
1418.0,0.0042
1417.0,0.0039
1416.0,0.0036
1415.0,0.0035
1414.0,0.0034
1413.0,0.0032
1412.0,0.0031
1411.0,0.0031
1410.0,0.0032
1409.0,0.0031
1408.0,0.0032
1407.0,0.0033
1406.0,0.0035
1405.0,0.0037
1404.0,0.004
1403.0,0.0043
1402.0,0.0047
1401.0,0.0052
1400.0,0.0061
1399.0,0.0075
1398.0,0.009
1397.0,0.0108
1396.0,0.0133
1395.0,0.0169
1394.0,0.0207
1393.0,0.0243
1392.0,0.0278
1391.0,0.0313
1390.0,0.0351
1389.0,0.0393
1388.0,0.0442
1387.0,0.0494
1386.0,0.0537
1385.0,0.0568
1384.0,0.059
1383.0,0.0606
1382.0,0.0612
1381.0,0.0608
1380.0,0.0594
1379.0,0.0572
1378.0,0.0544
1377.0,0.0516
1376.0,0.0492
1375.0,0.0476
1374.0,0.0472
1373.0,0.0479
1372.0,0.0493
1371.0,0.051
1370.0,0.0529
1369.0,0.0548
1368.0,0.0564
1367.0,0.0575
1366.0,0.0583
1365.0,0.0589
1364.0,0.0596
1363.0,0.0604
1362.0,0.0612
1361.0,0.0617
1360.0,0.062
1359.0,0.062
1358.0,0.0617
1357.0,0.0612
1356.0,0.0604
1355.0,0.0594
1354.0,0.058
1353.0,0.0564
1352.0,0.0546
1351.0,0.0527
1350.0,0.0507
1349.0,0.0488
1348.0,0.0469
1347.0,0.0451
1346.0,0.0434
1345.0,0.0418
1344.0,0.0403
1343.0,0.039
1342.0,0.0378
1341.0,0.0366
1340.0,0.0355
1339.0,0.0344
1338.0,0.0335
1337.0,0.0326
1336.0,0.0318
1335.0,0.0311
1334.0,0.0304
1333.0,0.0298
1332.0,0.0292
1331.0,0.0287
1330.0,0.0283
1329.0,0.028
1328.0,0.0277
1327.0,0.0275
1326.0,0.0273
1325.0,0.0272
1324.0,0.0271
1323.0,0.027
1322.0,0.027
1321.0,0.0269
1320.0,0.0269
1319.0,0.0269
1318.0,0.0269
1317.0,0.0269
1316.0,0.0269
1315.0,0.0269
1314.0,0.0269
1313.0,0.0269
1312.0,0.0269
1311.0,0.0269
1310.0,0.0269
1309.0,0.027
1308.0,0.027
1307.0,0.027
1306.0,0.027
1305.0,0.027
1304.0,0.027
1303.0,0.0269
1302.0,0.0267
1301.0,0.0265
1300.0,0.0261
1299.0,0.0257
1298.0,0.0252
1297.0,0.0245
1296.0,0.0238
1295.0,0.0229
1294.0,0.022
1293.0,0.0213
1292.0,0.0207
1291.0,0.0204
1290.0,0.0205
1289.0,0.021
1288.0,0.022
1287.0,0.0233
1286.0,0.025
1285.0,0.027
1284.0,0.0294
1283.0,0.0319
1282.0,0.0346
1281.0,0.0374
1280.0,0.0403
1279.0,0.0431
1278.0,0.0459
1277.0,0.0486
1276.0,0.0511
1275.0,0.0534
1274.0,0.0554
1273.0,0.0573
1272.0,0.0589
1271.0,0.0604
1270.0,0.0615
1269.0,0.0624
1268.0,0.063
1267.0,0.0633
1266.0,0.0634
1265.0,0.0632
1264.0,0.0627
1263.0,0.0621
1262.0,0.0613
1261.0,0.0604
1260.0,0.0594
1259.0,0.0583
1258.0,0.0573
1257.0,0.0562
1256.0,0.0551
1255.0,0.0541
1254.0,0.0532
1253.0,0.0523
1252.0,0.0516
1251.0,0.0511
1250.0,0.0506
1249.0,0.0503
1248.0,0.05
1247.0,0.0499
1246.0,0.0498
1245.0,0.0499
1244.0,0.0501
1243.0,0.0504
1242.0,0.0508
1241.0,0.0513
1240.0,0.0518
1239.0,0.0525
1238.0,0.0534
1237.0,0.0543
1236.0,0.0553
1235.0,0.0565
1234.0,0.0578
1233.0,0.0594
1232.0,0.0612
1231.0,0.0632
1230.0,0.0653
1229.0,0.0677
1228.0,0.0703
1227.0,0.0731
1226.0,0.0761
1225.0,0.0793
1224.0,0.0827
1223.0,0.0864
1222.0,0.0902
1221.0,0.094
1220.0,0.098
1219.0,0.1021
1218.0,0.1062
1217.0,0.1102
1216.0,0.1142
1215.0,0.118
1214.0,0.1216
1213.0,0.1248
1212.0,0.1276
1211.0,0.1301
1210.0,0.132
1209.0,0.1336
1208.0,0.1349
1207.0,0.136
1206.0,0.137
1205.0,0.1379
1204.0,0.1387
1203.0,0.1397
1202.0,0.1409
1201.0,0.1423
1200.0,0.1439
1199.0,0.1461
1198.0,0.1487
1197.0,0.1519
1196.0,0.1556
1195.0,0.16
1194.0,0.1651
1193.0,0.1709
1192.0,0.1775
1191.0,0.1851
1190.0,0.1936
1189.0,0.2029
1188.0,0.2131
1187.0,0.224
1186.0,0.2352
1185.0,0.2461
1184.0,0.2561
1183.0,0.2645
1182.0,0.2701
1181.0,0.2721
1180.0,0.2695
1179.0,0.2623
1178.0,0.2508
1177.0,0.2359
1176.0,0.219
1175.0,0.2014
1174.0,0.184
1173.0,0.1678
1172.0,0.1531
1171.0,0.14
1170.0,0.1285
1169.0,0.1183
1168.0,0.1095
1167.0,0.1018
1166.0,0.0952
1165.0,0.0893
1164.0,0.0842
1163.0,0.0798
1162.0,0.076
1161.0,0.0727
1160.0,0.0699
1159.0,0.0674
1158.0,0.0652
1157.0,0.0634
1156.0,0.062
1155.0,0.061
1154.0,0.0604
1153.0,0.0602
1152.0,0.0604
1151.0,0.0612
1150.0,0.0626
1149.0,0.0647
1148.0,0.0676
1147.0,0.0713
1146.0,0.0759
1145.0,0.0813
1144.0,0.0877
1143.0,0.095
1142.0,0.1031
1141.0,0.1118
1140.0,0.1208
1139.0,0.1301
1138.0,0.1392
1137.0,0.148
1136.0,0.1564
1135.0,0.1642
1134.0,0.1714
1133.0,0.1778
1132.0,0.1836
1131.0,0.1888
1130.0,0.1932
1129.0,0.1966
1128.0,0.1987
1127.0,0.1994
1126.0,0.1986
1125.0,0.1964
1124.0,0.1932
1123.0,0.1894
1122.0,0.1854
1121.0,0.1815
1120.0,0.178
1119.0,0.1749
1118.0,0.1723
1117.0,0.1702
1116.0,0.1687
1115.0,0.1678
1114.0,0.1677
1113.0,0.1684
1112.0,0.1702
1111.0,0.173
1110.0,0.177
1109.0,0.1819
1108.0,0.1879
1107.0,0.1949
1106.0,0.2027
1105.0,0.2109
1104.0,0.2195
1103.0,0.2284
1102.0,0.2376
1101.0,0.247
1100.0,0.2565
1099.0,0.2663
1098.0,0.2762
1097.0,0.2863
1096.0,0.2964
1095.0,0.3066
1094.0,0.3169
1093.0,0.3274
1092.0,0.3381
1091.0,0.349
1090.0,0.36
1089.0,0.3708
1088.0,0.3811
1087.0,0.3907
1086.0,0.3994
1085.0,0.4066
1084.0,0.4123
1083.0,0.4164
1082.0,0.4184
1081.0,0.4184
1080.0,0.4163
1079.0,0.4124
1078.0,0.4069
1077.0,0.3997
1076.0,0.3908
1075.0,0.3804
1074.0,0.3685
1073.0,0.3555
1072.0,0.3417
1071.0,0.3274
1070.0,0.3129
1069.0,0.2984
1068.0,0.2843
1067.0,0.2709
1066.0,0.2586
1065.0,0.2474
1064.0,0.2377
1063.0,0.2295
1062.0,0.223
1061.0,0.2183
1060.0,0.2153
1059.0,0.2137
1058.0,0.2133
1057.0,0.2138
1056.0,0.2148
1055.0,0.2162
1054.0,0.2179
1053.0,0.2197
1052.0,0.2217
1051.0,0.2239
1050.0,0.2265
1049.0,0.2292
1048.0,0.2319
1047.0,0.2345
1046.0,0.2367
1045.0,0.2382
1044.0,0.239
1043.0,0.2389
1042.0,0.2378
1041.0,0.2357
1040.0,0.2325
1039.0,0.2284
1038.0,0.2234
1037.0,0.2178
1036.0,0.2119
1035.0,0.2058
1034.0,0.2
1033.0,0.1945
1032.0,0.1894
1031.0,0.1849
1030.0,0.1808
1029.0,0.1772
1028.0,0.1739
1027.0,0.1709
1026.0,0.168
1025.0,0.165
1024.0,0.1618
1023.0,0.1584
1022.0,0.1548
1021.0,0.151
1020.0,0.1469
1019.0,0.1427
1018.0,0.1386
1017.0,0.1345
1016.0,0.1304
1015.0,0.1264
1014.0,0.1226
1013.0,0.119
1012.0,0.1157
1011.0,0.1125
1010.0,0.1097
1009.0,0.1071
1008.0,0.1048
1007.0,0.1027
1006.0,0.1006
1005.0,0.0987
1004.0,0.0968
1003.0,0.0951
1002.0,0.0935
1001.0,0.092
1000.0,0.0906
999.0,0.0893
998.0,0.088
997.0,0.0868
996.0,0.0856
995.0,0.0845
994.0,0.0834
993.0,0.0824
992.0,0.0814
991.0,0.0805
990.0,0.0795
989.0,0.0786
988.0,0.0778
987.0,0.0772
986.0,0.0768
985.0,0.0764
984.0,0.0759
983.0,0.0751
982.0,0.0742
981.0,0.0731
980.0,0.0721
979.0,0.0712
978.0,0.0704
977.0,0.0696
976.0,0.0689
975.0,0.0682
974.0,0.0675
973.0,0.0668
972.0,0.0661
971.0,0.0656
970.0,0.0651
969.0,0.0646
968.0,0.0642
967.0,0.064
966.0,0.0639
965.0,0.0639
964.0,0.0641
963.0,0.0647
962.0,0.0656
961.0,0.0667
960.0,0.068
959.0,0.0692
958.0,0.0701
957.0,0.0707
956.0,0.0709
955.0,0.0708
954.0,0.0705
953.0,0.07
952.0,0.0693
951.0,0.0685
950.0,0.0677
949.0,0.0669
948.0,0.0662
947.0,0.0655
946.0,0.0649
945.0,0.0643
944.0,0.0637
943.0,0.0632
942.0,0.0628
941.0,0.0623
940.0,0.0618
939.0,0.0614
938.0,0.0611
937.0,0.0608
936.0,0.0605
935.0,0.0603
934.0,0.0601
933.0,0.0599
932.0,0.0597
931.0,0.0595
930.0,0.0593
929.0,0.0593
928.0,0.0592
927.0,0.0592
926.0,0.0591
925.0,0.0591
924.0,0.059
923.0,0.059
922.0,0.0589
921.0,0.0589
920.0,0.0588
919.0,0.0587
918.0,0.0586
917.0,0.0586
916.0,0.0586
915.0,0.0585
914.0,0.0584
913.0,0.0582
912.0,0.058
911.0,0.0579
910.0,0.0578
909.0,0.0578
908.0,0.0577
907.0,0.0576
906.0,0.0575
905.0,0.0574
904.0,0.0573
903.0,0.0573
902.0,0.0573
901.0,0.0573
900.0,0.0574
899.0,0.0575
898.0,0.0575
897.0,0.0576
896.0,0.0577
895.0,0.0576
894.0,0.0575
893.0,0.0573
892.0,0.057
891.0,0.0565
890.0,0.056
889.0,0.0554
888.0,0.0548
887.0,0.0543
886.0,0.054
885.0,0.054
884.0,0.0544
883.0,0.0552
882.0,0.0565
881.0,0.0582
880.0,0.0604
879.0,0.0628
878.0,0.0656
877.0,0.0687
876.0,0.072
875.0,0.0754
874.0,0.0786
873.0,0.0816
872.0,0.0841
871.0,0.0861
870.0,0.0877
869.0,0.0889
868.0,0.0897
867.0,0.0902
866.0,0.0903
865.0,0.0901
864.0,0.0897
863.0,0.0889
862.0,0.0879
861.0,0.0864
860.0,0.0846
859.0,0.0823
858.0,0.0798
857.0,0.0771
856.0,0.0745
855.0,0.072
854.0,0.07
853.0,0.0685
852.0,0.0674
851.0,0.0666
850.0,0.0662
849.0,0.0658
848.0,0.0655
847.0,0.0651
846.0,0.0646
845.0,0.0639
844.0,0.0631
843.0,0.0621
842.0,0.0612
841.0,0.0603
840.0,0.0595
839.0,0.0588
838.0,0.0582
837.0,0.0577
836.0,0.0572
835.0,0.0568
834.0,0.0563
833.0,0.0558
832.0,0.0554
831.0,0.0551
830.0,0.055
829.0,0.055
828.0,0.055
827.0,0.0549
826.0,0.0547
825.0,0.0546
824.0,0.0545
823.0,0.0545
822.0,0.0546
821.0,0.0547
820.0,0.0549
819.0,0.0549
818.0,0.0549
817.0,0.0548
816.0,0.0548
815.0,0.0549
814.0,0.055
813.0,0.0551
812.0,0.0551
811.0,0.0551
810.0,0.0551
809.0,0.0552
808.0,0.0553
807.0,0.0554
806.0,0.0554
805.0,0.0554
804.0,0.0554
803.0,0.0554
802.0,0.0555
801.0,0.0557
800.0,0.0558
799.0,0.0559
798.0,0.0561
797.0,0.0562
796.0,0.0564
795.0,0.0567
794.0,0.0571
793.0,0.0576
792.0,0.0582
791.0,0.0588
790.0,0.0593
789.0,0.0598
788.0,0.0604
787.0,0.0611
786.0,0.062
785.0,0.063
784.0,0.064
783.0,0.0648
782.0,0.0655
781.0,0.0663
780.0,0.0673
779.0,0.0684
778.0,0.0695
777.0,0.0705
776.0,0.0716
775.0,0.0728
774.0,0.074
773.0,0.0752
772.0,0.0765
771.0,0.0777
770.0,0.0792
769.0,0.0808
768.0,0.0827
767.0,0.0846
766.0,0.0866
765.0,0.0885
764.0,0.0907
763.0,0.0931
762.0,0.0957
761.0,0.0983
760.0,0.1009
759.0,0.1032
758.0,0.1054
757.0,0.1075
756.0,0.1092
755.0,0.1104
754.0,0.1113
753.0,0.1118
752.0,0.112
751.0,0.1118
750.0,0.1114
749.0,0.111
748.0,0.1106
747.0,0.1103
746.0,0.1099
745.0,0.1095
744.0,0.1091
743.0,0.1088
742.0,0.1083
741.0,0.1077
740.0,0.1068
739.0,0.1059
738.0,0.1049
737.0,0.1037
736.0,0.1021
735.0,0.1003
734.0,0.0983
733.0,0.0963
732.0,0.0944
731.0,0.0926
730.0,0.0911
729.0,0.0898
728.0,0.0887
727.0,0.0878
726.0,0.0873
725.0,0.0873
724.0,0.0877
723.0,0.0882
722.0,0.0887
721.0,0.0894
720.0,0.0906
719.0,0.0923
718.0,0.0941
717.0,0.0958
716.0,0.0972
715.0,0.0984
714.0,0.0995
713.0,0.1006
712.0,0.1016
711.0,0.1025
710.0,0.1031
709.0,0.1036
708.0,0.1041
707.0,0.1046
706.0,0.1049
705.0,0.1052
704.0,0.1055
703.0,0.1059
702.0,0.1063
701.0,0.1065
700.0,0.1068
699.0,0.1071
698.0,0.1071
697.0,0.1068
696.0,0.1064
695.0,0.1059
694.0,0.1054
693.0,0.1051
692.0,0.1049
691.0,0.105
690.0,0.1054
689.0,0.1059
688.0,0.1067
687.0,0.1077
686.0,0.1085
685.0,0.1089
684.0,0.1087
683.0,0.1081
682.0,0.1078
681.0,0.1079
680.0,0.1086
679.0,0.1094
678.0,0.1099
677.0,0.1102
676.0,0.1101
675.0,0.1097
674.0,0.1089
673.0,0.1086
672.0,0.1093
671.0,0.1114
670.0,0.1148
669.0,0.1198
668.0,0.1246
667.0,0.1236
666.0,0.119
665.0,0.1149
664.0,0.1127
663.0,0.1121
662.0,0.112
661.0,0.1117
660.0,0.1112
659.0,0.111
658.0,0.1113
657.0,0.1121
656.0,0.113
655.0,0.1133
654.0,0.1128
653.0,0.1117
652.0,0.111
651.0,0.1112
650.0,0.112
649.0,0.1128
648.0,0.1133
647.0,0.1136
646.0,0.1137
645.0,0.1134
644.0,0.1128
643.0,0.1125
642.0,0.1128
641.0,0.1137
640.0,0.115
639.0,0.1165
638.0,0.1183
637.0,0.1204
636.0,0.1228
635.0,0.1245
634.0,0.1244
633.0,0.1228
632.0,0.1204
631.0,0.1184
630.0,0.1168
629.0,0.1158
628.0,0.115
627.0,0.1144
626.0,0.1135
625.0,0.1125
624.0,0.1116
623.0,0.111
622.0,0.1108
621.0,0.1108
620.0,0.1111
619.0,0.1113
618.0,0.1113
617.0,0.111
616.0,0.1108
615.0,0.1103
614.0,0.1092
613.0,0.1076
612.0,0.1063
611.0,0.1055
610.0,0.105
609.0,0.1045
608.0,0.1042
607.0,0.104
606.0,0.1033
605.0,0.1017
604.0,0.0997
603.0,0.0979
602.0,0.0968
601.0,0.0964
600.0,0.0966
