cm-1,A
4000.0,-0.0012
3999.0,-0.0011
3998.0,-0.0011
3997.0,-0.0011
3996.0,-0.0011
3995.0,-0.0012
3994.0,-0.0013
3993.0,-0.0012
3992.0,-0.0012
3991.0,-0.0012
3990.0,-0.0012
3989.0,-0.0012
3988.0,-0.0012
3987.0,-0.0011
3986.0,-0.0011
3985.0,-0.0011
3984.0,-0.0011
3983.0,-0.0011
3982.0,-0.0011
3981.0,-0.001
3980.0,-0.001
3979.0,-0.001
3978.0,-0.001
3977.0,-0.0011
3976.0,-0.0011
3975.0,-0.0012
3974.0,-0.0012
3973.0,-0.0012
3972.0,-0.0011
3971.0,-0.0011
3970.0,-0.001
3969.0,-0.0011
3968.0,-0.0011
3967.0,-0.0011
3966.0,-0.0012
3965.0,-0.0012
3964.0,-0.0011
3963.0,-0.0011
3962.0,-0.001
3961.0,-0.001
3960.0,-0.001
3959.0,-0.001
3958.0,-0.0011
3957.0,-0.0011
3956.0,-0.0011
3955.0,-0.0012
3954.0,-0.0012
3953.0,-0.0012
3952.0,-0.0011
3951.0,-0.001
3950.0,-0.001
3949.0,-0.001
3948.0,-0.001
3947.0,-0.0011
3946.0,-0.0011
3945.0,-0.0012
3944.0,-0.0012
3943.0,-0.0012
3942.0,-0.0012
3941.0,-0.0012
3940.0,-0.0011
3939.0,-0.0011
3938.0,-0.001
3937.0,-0.001
3936.0,-0.001
3935.0,-0.0011
3934.0,-0.0011
3933.0,-0.0011
3932.0,-0.0011
3931.0,-0.0011
3930.0,-0.0011
3929.0,-0.0011
3928.0,-0.0011
3927.0,-0.0011
3926.0,-0.001
3925.0,-0.001
3924.0,-0.001
3923.0,-0.001
3922.0,-0.001
3921.0,-0.001
3920.0,-0.001
3919.0,-0.001
3918.0,-0.001
3917.0,-0.001
3916.0,-0.001
3915.0,-0.001
3914.0,-0.001
3913.0,-0.001
3912.0,-0.0009
3911.0,-0.0009
3910.0,-0.001
3909.0,-0.001
3908.0,-0.0011
3907.0,-0.0012
3906.0,-0.0012
3905.0,-0.0013
3904.0,-0.0014
3903.0,-0.0014
3902.0,-0.0014
3901.0,-0.0014
3900.0,-0.0013
3899.0,-0.0012
3898.0,-0.0012
3897.0,-0.0011
3896.0,-0.0011
3895.0,-0.0011
3894.0,-0.0011
3893.0,-0.0011
3892.0,-0.0011
3891.0,-0.0011
3890.0,-0.0011
3889.0,-0.0012
3888.0,-0.0012
3887.0,-0.0012
3886.0,-0.0012
3885.0,-0.0012
3884.0,-0.0011
3883.0,-0.0011
3882.0,-0.0011
3881.0,-0.0011
3880.0,-0.0011
3879.0,-0.0011
3878.0,-0.0011
3877.0,-0.0011
3876.0,-0.001
3875.0,-0.001
3874.0,-0.0009
3873.0,-0.0009
3872.0,-0.0008
3871.0,-0.0007
3870.0,-0.0007
3869.0,-0.0008
3868.0,-0.0009
3867.0,-0.0009
3866.0,-0.001
3865.0,-0.0011
3864.0,-0.0011
3863.0,-0.001
3862.0,-0.001
3861.0,-0.001
3860.0,-0.001
3859.0,-0.001
3858.0,-0.0011
3857.0,-0.0012
3856.0,-0.0013
3855.0,-0.0013
3854.0,-0.0011
3853.0,-0.0009
3852.0,-0.0008
3851.0,-0.0007
3850.0,-0.0007
3849.0,-0.0008
3848.0,-0.0009
3847.0,-0.0009
3846.0,-0.0008
3845.0,-0.0008
3844.0,-0.0008
3843.0,-0.0009
3842.0,-0.0009
3841.0,-0.0009
3840.0,-0.0008
3839.0,-0.0007
3838.0,-0.0008
3837.0,-0.0009
3836.0,-0.001
3835.0,-0.001
3834.0,-0.001
3833.0,-0.001
3832.0,-0.0009
3831.0,-0.0009
3830.0,-0.001
3829.0,-0.001
3828.0,-0.001
3827.0,-0.001
3826.0,-0.001
3825.0,-0.001
3824.0,-0.001
3823.0,-0.001
3822.0,-0.0009
3821.0,-0.0009
3820.0,-0.0009
3819.0,-0.0008
3818.0,-0.0008
3817.0,-0.0008
3816.0,-0.0008
3815.0,-0.0009
3814.0,-0.001
3813.0,-0.0011
3812.0,-0.0011
3811.0,-0.0011
3810.0,-0.0011
3809.0,-0.0011
3808.0,-0.001
3807.0,-0.0009
3806.0,-0.0008
3805.0,-0.0008
3804.0,-0.0007
3803.0,-0.0006
3802.0,-0.0006
3801.0,-0.0007
3800.0,-0.0008
3799.0,-0.0008
3798.0,-0.0008
3797.0,-0.0008
3796.0,-0.0009
3795.0,-0.001
3794.0,-0.001
3793.0,-0.001
3792.0,-0.001
3791.0,-0.001
3790.0,-0.001
3789.0,-0.001
3788.0,-0.001
3787.0,-0.0011
3786.0,-0.0011
3785.0,-0.0012
3784.0,-0.0012
3783.0,-0.0011
3782.0,-0.001
3781.0,-0.0009
3780.0,-0.0009
3779.0,-0.0009
3778.0,-0.0009
3777.0,-0.0009
3776.0,-0.0009
3775.0,-0.0008
3774.0,-0.0008
3773.0,-0.0008
3772.0,-0.0008
3771.0,-0.0009
3770.0,-0.001
3769.0,-0.0011
3768.0,-0.0011
3767.0,-0.001
3766.0,-0.0009
3765.0,-0.0009
3764.0,-0.001
3763.0,-0.0011
3762.0,-0.0011
3761.0,-0.0011
3760.0,-0.0011
3759.0,-0.0011
3758.0,-0.001
3757.0,-0.001
3756.0,-0.001
3755.0,-0.001
3754.0,-0.001
3753.0,-0.001
3752.0,-0.001
3751.0,-0.001
3750.0,-0.001
3749.0,-0.001
3748.0,-0.0009
3747.0,-0.0008
3746.0,-0.0006
3745.0,-0.0006
3744.0,-0.0007
3743.0,-0.0008
3742.0,-0.0008
3741.0,-0.0007
3740.0,-0.0007
3739.0,-0.0007
3738.0,-0.0007
3737.0,-0.0007
3736.0,-0.0007
3735.0,-0.0007
3734.0,-0.0007
3733.0,-0.0007
3732.0,-0.0007
3731.0,-0.0007
3730.0,-0.0007
3729.0,-0.0007
3728.0,-0.0007
3727.0,-0.0007
3726.0,-0.0006
3725.0,-0.0006
3724.0,-0.0006
3723.0,-0.0006
3722.0,-0.0006
3721.0,-0.0005
3720.0,-0.0005
3719.0,-0.0005
3718.0,-0.0006
3717.0,-0.0007
3716.0,-0.0008
3715.0,-0.0008
3714.0,-0.0008
3713.0,-0.0006
3712.0,-0.0005
3711.0,-0.0004
3710.0,-0.0005
3709.0,-0.0006
3708.0,-0.0007
3707.0,-0.0007
3706.0,-0.0008
3705.0,-0.0008
3704.0,-0.0008
3703.0,-0.0008
3702.0,-0.0008
3701.0,-0.0008
3700.0,-0.0008
3699.0,-0.0007
3698.0,-0.0006
3697.0,-0.0006
3696.0,-0.0005
3695.0,-0.0005
3694.0,-0.0005
3693.0,-0.0005
3692.0,-0.0005
3691.0,-0.0005
3690.0,-0.0005
3689.0,-0.0006
3688.0,-0.0007
3687.0,-0.0007
3686.0,-0.0006
3685.0,-0.0006
3684.0,-0.0007
3683.0,-0.0007
3682.0,-0.0007
3681.0,-0.0007
3680.0,-0.0006
3679.0,-0.0007
3678.0,-0.0007
3677.0,-0.0009
3676.0,-0.001
3675.0,-0.001
3674.0,-0.0009
3673.0,-0.0007
3672.0,-0.0005
3671.0,-0.0004
3670.0,-0.0004
3669.0,-0.0006
3668.0,-0.0007
3667.0,-0.0008
3666.0,-0.0008
3665.0,-0.0008
3664.0,-0.0008
3663.0,-0.0008
3662.0,-0.0008
3661.0,-0.0008
3660.0,-0.0008
3659.0,-0.0008
3658.0,-0.0008
3657.0,-0.0007
3656.0,-0.0006
3655.0,-0.0005
3654.0,-0.0005
3653.0,-0.0005
3652.0,-0.0005
3651.0,-0.0005
3650.0,-0.0005
3649.0,-0.0005
3648.0,-0.0005
3647.0,-0.0006
3646.0,-0.0006
3645.0,-0.0006
3644.0,-0.0005
3643.0,-0.0005
3642.0,-0.0005
3641.0,-0.0006
3640.0,-0.0006
3639.0,-0.0005
3638.0,-0.0005
3637.0,-0.0005
3636.0,-0.0006
3635.0,-0.0007
3634.0,-0.0007
3633.0,-0.0008
3632.0,-0.0008
3631.0,-0.0009
3630.0,-0.0008
3629.0,-0.0006
3628.0,-0.0006
3627.0,-0.0005
3626.0,-0.0005
3625.0,-0.0005
3624.0,-0.0005
3623.0,-0.0005
3622.0,-0.0005
3621.0,-0.0006
3620.0,-0.0006
3619.0,-0.0007
3618.0,-0.0008
3617.0,-0.0008
3616.0,-0.0007
3615.0,-0.0005
3614.0,-0.0005
3613.0,-0.0005
3612.0,-0.0005
3611.0,-0.0006
3610.0,-0.0006
3609.0,-0.0005
3608.0,-0.0005
3607.0,-0.0005
3606.0,-0.0006
3605.0,-0.0005
3604.0,-0.0005
3603.0,-0.0005
3602.0,-0.0006
3601.0,-0.0007
3600.0,-0.0007
3599.0,-0.0006
3598.0,-0.0006
3597.0,-0.0006
3596.0,-0.0006
3595.0,-0.0006
3594.0,-0.0006
3593.0,-0.0006
3592.0,-0.0006
3591.0,-0.0006
3590.0,-0.0005
3589.0,-0.0005
3588.0,-0.0004
3587.0,-0.0004
3586.0,-0.0004
3585.0,-0.0005
3584.0,-0.0005
3583.0,-0.0006
3582.0,-0.0006
3581.0,-0.0007
3580.0,-0.0007
3579.0,-0.0007
3578.0,-0.0006
3577.0,-0.0005
3576.0,-0.0005
3575.0,-0.0005
3574.0,-0.0006
3573.0,-0.0006
3572.0,-0.0006
3571.0,-0.0006
3570.0,-0.0005
3569.0,-0.0005
3568.0,-0.0004
3567.0,-0.0004
3566.0,-0.0005
3565.0,-0.0005
3564.0,-0.0006
3563.0,-0.0005
3562.0,-0.0005
3561.0,-0.0005
3560.0,-0.0006
3559.0,-0.0007
3558.0,-0.0007
3557.0,-0.0006
3556.0,-0.0005
3555.0,-0.0004
3554.0,-0.0003
3553.0,-0.0003
3552.0,-0.0004
3551.0,-0.0005
3550.0,-0.0005
3549.0,-0.0004
3548.0,-0.0003
3547.0,-0.0003
3546.0,-0.0003
3545.0,-0.0004
3544.0,-0.0005
3543.0,-0.0005
3542.0,-0.0005
3541.0,-0.0005
3540.0,-0.0005
3539.0,-0.0006
3538.0,-0.0006
3537.0,-0.0006
3536.0,-0.0006
3535.0,-0.0006
3534.0,-0.0005
3533.0,-0.0005
3532.0,-0.0004
3531.0,-0.0003
3530.0,-0.0003
3529.0,-0.0002
3528.0,-0.0001
3527.0,-0.0001
3526.0,-0.0
3525.0,-0.0
3524.0,-0.0001
3523.0,-0.0002
3522.0,-0.0003
3521.0,-0.0003
3520.0,-0.0003
3519.0,-0.0003
3518.0,-0.0002
3517.0,-0.0002
3516.0,-0.0002
3515.0,-0.0002
3514.0,-0.0002
3513.0,-0.0002
3512.0,-0.0002
3511.0,-0.0001
3510.0,-0.0001
3509.0,-0.0001
3508.0,-0.0001
3507.0,-0.0001
3506.0,-0.0001
3505.0,-0.0001
3504.0,0.0
3503.0,0.0
3502.0,0.0
3501.0,0.0
3500.0,-0.0
3499.0,-0.0001
3498.0,-0.0001
3497.0,-0.0001
3496.0,-0.0001
3495.0,-0.0
3494.0,0.0
3493.0,0.0
3492.0,-0.0
3491.0,-0.0001
3490.0,-0.0002
3489.0,-0.0002
3488.0,-0.0003
3487.0,-0.0003
3486.0,-0.0003
3485.0,-0.0002
3484.0,-0.0001
3483.0,-0.0
3482.0,-0.0001
3481.0,-0.0001
3480.0,-0.0001
3479.0,-0.0001
3478.0,-0.0001
3477.0,-0.0001
3476.0,-0.0001
3475.0,-0.0001
3474.0,-0.0001
3473.0,-0.0001
3472.0,-0.0002
3471.0,-0.0003
3470.0,-0.0004
3469.0,-0.0005
3468.0,-0.0005
3467.0,-0.0005
3466.0,-0.0006
3465.0,-0.0007
3464.0,-0.0007
3463.0,-0.0006
3462.0,-0.0005
3461.0,-0.0004
3460.0,-0.0003
3459.0,-0.0002
3458.0,-0.0002
3457.0,-0.0003
3456.0,-0.0004
3455.0,-0.0004
3454.0,-0.0005
3453.0,-0.0006
3452.0,-0.0006
3451.0,-0.0006
3450.0,-0.0005
3449.0,-0.0005
3448.0,-0.0005
3447.0,-0.0006
3446.0,-0.0007
3445.0,-0.0007
3444.0,-0.0007
3443.0,-0.0007
3442.0,-0.0007
3441.0,-0.0007
3440.0,-0.0007
3439.0,-0.0007
3438.0,-0.0006
3437.0,-0.0006
3436.0,-0.0005
3435.0,-0.0005
3434.0,-0.0005
3433.0,-0.0005
3432.0,-0.0006
3431.0,-0.0007
3430.0,-0.0007
3429.0,-0.0008
3428.0,-0.0008
3427.0,-0.0009
3426.0,-0.0009
3425.0,-0.0009
3424.0,-0.0008
3423.0,-0.0007
3422.0,-0.0007
3421.0,-0.0008
3420.0,-0.0009
3419.0,-0.001
3418.0,-0.001
3417.0,-0.001
3416.0,-0.0009
3415.0,-0.0008
3414.0,-0.0008
3413.0,-0.0008
3412.0,-0.0008
3411.0,-0.0008
3410.0,-0.0008
3409.0,-0.0009
3408.0,-0.001
3407.0,-0.001
3406.0,-0.001
3405.0,-0.0009
3404.0,-0.0009
3403.0,-0.0009
3402.0,-0.001
3401.0,-0.001
3400.0,-0.001
3399.0,-0.0009
3398.0,-0.0009
3397.0,-0.0009
3396.0,-0.001
3395.0,-0.001
3394.0,-0.0009
3393.0,-0.0008
3392.0,-0.0008
3391.0,-0.0007
3390.0,-0.0007
3389.0,-0.0008
3388.0,-0.0009
3387.0,-0.001
3386.0,-0.001
3385.0,-0.0011
3384.0,-0.0011
3383.0,-0.001
3382.0,-0.001
3381.0,-0.0009
3380.0,-0.0009
3379.0,-0.001
3378.0,-0.001
3377.0,-0.0011
3376.0,-0.0011
3375.0,-0.0011
3374.0,-0.0011
3373.0,-0.0009
3372.0,-0.0008
3371.0,-0.0007
3370.0,-0.0008
3369.0,-0.0009
3368.0,-0.001
3367.0,-0.0009
3366.0,-0.0008
3365.0,-0.0008
3364.0,-0.0008
3363.0,-0.0008
3362.0,-0.0009
3361.0,-0.001
3360.0,-0.0009
3359.0,-0.0009
3358.0,-0.0008
3357.0,-0.0007
3356.0,-0.0006
3355.0,-0.0006
3354.0,-0.0006
3353.0,-0.0006
3352.0,-0.0006
3351.0,-0.0006
3350.0,-0.0006
3349.0,-0.0006
3348.0,-0.0006
3347.0,-0.0006
3346.0,-0.0007
3345.0,-0.0007
3344.0,-0.0008
3343.0,-0.0008
3342.0,-0.0008
3341.0,-0.0008
3340.0,-0.0008
3339.0,-0.0007
3338.0,-0.0006
3337.0,-0.0005
3336.0,-0.0004
3335.0,-0.0004
3334.0,-0.0003
3333.0,-0.0003
3332.0,-0.0004
3331.0,-0.0005
3330.0,-0.0005
3329.0,-0.0005
3328.0,-0.0005
3327.0,-0.0004
3326.0,-0.0004
3325.0,-0.0004
3324.0,-0.0004
3323.0,-0.0003
3322.0,-0.0004
3321.0,-0.0004
3320.0,-0.0004
3319.0,-0.0004
3318.0,-0.0004
3317.0,-0.0004
3316.0,-0.0004
3315.0,-0.0004
3314.0,-0.0004
3313.0,-0.0004
3312.0,-0.0004
3311.0,-0.0005
3310.0,-0.0006
3309.0,-0.0006
3308.0,-0.0005
3307.0,-0.0005
3306.0,-0.0005
3305.0,-0.0004
3304.0,-0.0003
3303.0,-0.0002
3302.0,-0.0001
3301.0,-0.0001
3300.0,-0.0002
3299.0,-0.0003
3298.0,-0.0004
3297.0,-0.0004
3296.0,-0.0004
3295.0,-0.0003
3294.0,-0.0002
3293.0,-0.0002
3292.0,-0.0002
3291.0,-0.0003
3290.0,-0.0003
3289.0,-0.0003
3288.0,-0.0003
3287.0,-0.0002
3286.0,-0.0002
3285.0,-0.0002
3284.0,-0.0002
3283.0,-0.0003
3282.0,-0.0003
3281.0,-0.0004
3280.0,-0.0003
3279.0,-0.0003
3278.0,-0.0002
3277.0,-0.0002
3276.0,-0.0002
3275.0,-0.0003
3274.0,-0.0003
3273.0,-0.0004
3272.0,-0.0004
3271.0,-0.0003
3270.0,-0.0002
3269.0,-0.0002
3268.0,-0.0002
3267.0,-0.0004
3266.0,-0.0005
3265.0,-0.0007
3264.0,-0.0007
3263.0,-0.0006
3262.0,-0.0005
3261.0,-0.0004
3260.0,-0.0003
3259.0,-0.0003
3258.0,-0.0004
3257.0,-0.0005
3256.0,-0.0005
3255.0,-0.0005
3254.0,-0.0005
3253.0,-0.0004
3252.0,-0.0003
3251.0,-0.0003
3250.0,-0.0003
3249.0,-0.0004
3248.0,-0.0004
3247.0,-0.0005
3246.0,-0.0006
3245.0,-0.0005
3244.0,-0.0005
3243.0,-0.0004
3242.0,-0.0004
3241.0,-0.0004
3240.0,-0.0004
3239.0,-0.0005
3238.0,-0.0005
3237.0,-0.0006
3236.0,-0.0007
3235.0,-0.0007
3234.0,-0.0007
3233.0,-0.0007
3232.0,-0.0006
3231.0,-0.0005
3230.0,-0.0004
3229.0,-0.0003
3228.0,-0.0002
3227.0,-0.0002
3226.0,-0.0002
3225.0,-0.0003
3224.0,-0.0003
3223.0,-0.0003
3222.0,-0.0003
3221.0,-0.0002
3220.0,-0.0002
3219.0,-0.0002
3218.0,-0.0003
3217.0,-0.0004
3216.0,-0.0004
3215.0,-0.0004
3214.0,-0.0004
3213.0,-0.0004
3212.0,-0.0004
3211.0,-0.0004
3210.0,-0.0003
3209.0,-0.0003
3208.0,-0.0003
3207.0,-0.0003
3206.0,-0.0004
3205.0,-0.0004
3204.0,-0.0003
3203.0,-0.0003
3202.0,-0.0003
3201.0,-0.0004
3200.0,-0.0003
3199.0,-0.0002
3198.0,-0.0001
3197.0,0.0
3196.0,0.0001
3195.0,0.0
3194.0,-0.0001
3193.0,-0.0002
3192.0,-0.0003
3191.0,-0.0003
3190.0,-0.0003
3189.0,-0.0002
3188.0,-0.0002
3187.0,-0.0003
3186.0,-0.0003
3185.0,-0.0003
3184.0,-0.0002
3183.0,-0.0001
3182.0,-0.0001
3181.0,-0.0001
3180.0,-0.0001
3179.0,-0.0001
3178.0,-0.0001
3177.0,-0.0
3176.0,0.0
3175.0,0.0001
3174.0,0.0
3173.0,-0.0001
3172.0,-0.0002
3171.0,-0.0002
3170.0,-0.0003
3169.0,-0.0002
3168.0,-0.0002
3167.0,-0.0002
3166.0,-0.0002
3165.0,-0.0001
3164.0,-0.0001
3163.0,-0.0001
3162.0,-0.0001
3161.0,-0.0
3160.0,-0.0
3159.0,-0.0
3158.0,0.0
3157.0,0.0
3156.0,0.0001
3155.0,0.0001
3154.0,0.0002
3153.0,0.0002
3152.0,0.0002
3151.0,0.0001
3150.0,-0.0001
3149.0,-0.0001
3148.0,-0.0002
3147.0,-0.0002
3146.0,-0.0002
3145.0,-0.0002
3144.0,-0.0001
3143.0,-0.0001
3142.0,0.0
3141.0,0.0001
3140.0,0.0001
3139.0,0.0001
3138.0,-0.0
3137.0,-0.0001
3136.0,-0.0001
3135.0,-0.0001
3134.0,-0.0
3133.0,0.0
3132.0,0.0001
3131.0,0.0002
3130.0,0.0002
3129.0,0.0002
3128.0,0.0001
3127.0,0.0001
3126.0,-0.0
3125.0,-0.0001
3124.0,-0.0002
3123.0,-0.0002
3122.0,-0.0001
3121.0,0.0001
3120.0,0.0001
3119.0,0.0
3118.0,-0.0
3117.0,-0.0001
3116.0,-0.0001
3115.0,-0.0001
3114.0,-0.0
3113.0,-0.0
3112.0,-0.0
3111.0,-0.0
3110.0,0.0
3109.0,0.0
3108.0,-0.0
3107.0,-0.0001
3106.0,-0.0001
3105.0,-0.0001
3104.0,-0.0
3103.0,0.0
3102.0,0.0
3101.0,0.0
3100.0,0.0
3099.0,0.0
3098.0,-0.0
3097.0,-0.0
3096.0,-0.0001
3095.0,-0.0001
3094.0,-0.0001
3093.0,-0.0001
3092.0,-0.0001
3091.0,-0.0002
3090.0,-0.0002
3089.0,-0.0002
3088.0,-0.0002
3087.0,-0.0002
3086.0,-0.0001
3085.0,0.0001
3084.0,0.0001
3083.0,0.0001
3082.0,0.0001
3081.0,-0.0
3080.0,-0.0001
3079.0,-0.0002
3078.0,-0.0002
3077.0,-0.0002
3076.0,-0.0002
3075.0,-0.0001
3074.0,-0.0001
3073.0,-0.0002
3072.0,-0.0002
3071.0,-0.0002
3070.0,-0.0002
3069.0,-0.0001
3068.0,-0.0001
3067.0,-0.0002
3066.0,-0.0002
3065.0,-0.0002
3064.0,-0.0002
3063.0,-0.0001
3062.0,-0.0001
3061.0,-0.0
3060.0,-0.0
3059.0,-0.0
3058.0,-0.0001
3057.0,-0.0001
3056.0,-0.0001
3055.0,-0.0
3054.0,-0.0
3053.0,-0.0
3052.0,-0.0
3051.0,-0.0
3050.0,-0.0001
3049.0,-0.0001
3048.0,-0.0001
3047.0,-0.0001
3046.0,-0.0001
3045.0,-0.0001
3044.0,-0.0001
3043.0,-0.0001
3042.0,-0.0001
3041.0,-0.0
3040.0,0.0
3039.0,0.0
3038.0,0.0
3037.0,-0.0
3036.0,-0.0001
3035.0,-0.0001
3034.0,-0.0001
3033.0,-0.0
3032.0,0.0
3031.0,0.0001
3030.0,0.0001
3029.0,0.0001
3028.0,0.0001
3027.0,0.0001
3026.0,0.0001
3025.0,0.0001
3024.0,0.0001
3023.0,0.0002
3022.0,0.0002
3021.0,0.0002
3020.0,0.0003
3019.0,0.0003
3018.0,0.0004
3017.0,0.0004
3016.0,0.0005
3015.0,0.0006
3014.0,0.0007
3013.0,0.0008
3012.0,0.0009
3011.0,0.001
3010.0,0.0012
3009.0,0.0014
3008.0,0.0015
3007.0,0.0016
3006.0,0.0018
3005.0,0.002
3004.0,0.0022
3003.0,0.0024
3002.0,0.0026
3001.0,0.0027
3000.0,0.0028
2999.0,0.003
2998.0,0.0031
2997.0,0.0032
2996.0,0.0033
2995.0,0.0034
2994.0,0.0035
2993.0,0.0035
2992.0,0.0034
2991.0,0.0033
2990.0,0.0032
2989.0,0.003
2988.0,0.0028
2987.0,0.0027
2986.0,0.0025
2985.0,0.0023
2984.0,0.0022
2983.0,0.0021
2982.0,0.002
2981.0,0.0019
2980.0,0.0018
2979.0,0.0017
2978.0,0.0016
2977.0,0.0016
2976.0,0.0015
2975.0,0.0015
2974.0,0.0015
2973.0,0.0016
2972.0,0.0016
2971.0,0.0017
2970.0,0.0017
2969.0,0.0017
2968.0,0.0017
2967.0,0.0017
2966.0,0.0017
2965.0,0.0017
2964.0,0.0017
2963.0,0.0018
2962.0,0.0018
2961.0,0.0019
2960.0,0.002
2959.0,0.0021
2958.0,0.0022
2957.0,0.0022
2956.0,0.0023
2955.0,0.0023
2954.0,0.0024
2953.0,0.0025
2952.0,0.0027
2951.0,0.0028
2950.0,0.0029
2949.0,0.0031
2948.0,0.0032
2947.0,0.0034
2946.0,0.0035
2945.0,0.0035
2944.0,0.0035
2943.0,0.0035
2942.0,0.0034
2941.0,0.0033
2940.0,0.0032
2939.0,0.0031
2938.0,0.003
2937.0,0.0028
2936.0,0.0027
2935.0,0.0026
2934.0,0.0025
2933.0,0.0025
2932.0,0.0025
2931.0,0.0024
2930.0,0.0024
2929.0,0.0023
2928.0,0.0023
2927.0,0.0023
2926.0,0.0022
2925.0,0.0022
2924.0,0.0021
2923.0,0.002
2922.0,0.002
2921.0,0.002
2920.0,0.0021
2919.0,0.0021
2918.0,0.0021
2917.0,0.002
2916.0,0.0019
2915.0,0.0018
2914.0,0.0017
2913.0,0.0016
2912.0,0.0015
2911.0,0.0015
2910.0,0.0015
2909.0,0.0015
2908.0,0.0015
2907.0,0.0016
2906.0,0.0015
2905.0,0.0015
2904.0,0.0015
2903.0,0.0014
2902.0,0.0014
2901.0,0.0014
2900.0,0.0013
2899.0,0.0013
2898.0,0.0013
2897.0,0.0012
2896.0,0.0012
2895.0,0.0012
2894.0,0.0013
2893.0,0.0013
2892.0,0.0012
2891.0,0.0012
2890.0,0.0012
2889.0,0.0012
2888.0,0.0012
2887.0,0.0012
2886.0,0.0012
2885.0,0.0013
2884.0,0.0014
2883.0,0.0014
2882.0,0.0014
2881.0,0.0014
2880.0,0.0014
2879.0,0.0014
2878.0,0.0014
2877.0,0.0014
2876.0,0.0014
2875.0,0.0013
2874.0,0.0013
2873.0,0.0013
2872.0,0.0013
2871.0,0.0012
2870.0,0.0011
2869.0,0.001
2868.0,0.0009
2867.0,0.0008
2866.0,0.0008
2865.0,0.0009
2864.0,0.0009
2863.0,0.001
2862.0,0.001
2861.0,0.0009
2860.0,0.0009
2859.0,0.0009
2858.0,0.0009
2857.0,0.0009
2856.0,0.0009
2855.0,0.0009
2854.0,0.001
2853.0,0.001
2852.0,0.0011
2851.0,0.0012
2850.0,0.0012
2849.0,0.0011
2848.0,0.001
2847.0,0.0009
2846.0,0.0009
2845.0,0.0008
2844.0,0.0008
2843.0,0.0008
2842.0,0.0007
2841.0,0.0006
2840.0,0.0006
2839.0,0.0006
2838.0,0.0006
2837.0,0.0006
2836.0,0.0006
2835.0,0.0006
2834.0,0.0005
2833.0,0.0005
2832.0,0.0005
2831.0,0.0005
2830.0,0.0005
2829.0,0.0005
2828.0,0.0005
2827.0,0.0005
2826.0,0.0005
2825.0,0.0005
2824.0,0.0005
2823.0,0.0005
2822.0,0.0005
2821.0,0.0004
2820.0,0.0004
2819.0,0.0004
2818.0,0.0003
2817.0,0.0003
2816.0,0.0003
2815.0,0.0004
2814.0,0.0004
2813.0,0.0005
2812.0,0.0005
2811.0,0.0005
2810.0,0.0005
2809.0,0.0005
2808.0,0.0004
2807.0,0.0004
2806.0,0.0005
2805.0,0.0004
2804.0,0.0004
2803.0,0.0004
2802.0,0.0005
2801.0,0.0005
2800.0,0.0005
2799.0,0.0005
2798.0,0.0004
2797.0,0.0004
2796.0,0.0004
2795.0,0.0004
2794.0,0.0004
2793.0,0.0003
2792.0,0.0003
2791.0,0.0003
2790.0,0.0003
2789.0,0.0003
2788.0,0.0003
2787.0,0.0003
2786.0,0.0003
2785.0,0.0003
2784.0,0.0003
2783.0,0.0002
2782.0,0.0002
2781.0,0.0002
2780.0,0.0002
2779.0,0.0002
2778.0,0.0003
2777.0,0.0003
2776.0,0.0003
2775.0,0.0003
2774.0,0.0003
2773.0,0.0003
2772.0,0.0003
2771.0,0.0003
2770.0,0.0003
2769.0,0.0002
2768.0,0.0002
2767.0,0.0002
2766.0,0.0002
2765.0,0.0003
2764.0,0.0003
2763.0,0.0003
2762.0,0.0003
2761.0,0.0003
2760.0,0.0002
2759.0,0.0002
2758.0,0.0002
2757.0,0.0002
2756.0,0.0002
2755.0,0.0002
2754.0,0.0002
2753.0,0.0002
2752.0,0.0002
2751.0,0.0002
2750.0,0.0001
2749.0,0.0001
2748.0,0.0001
2747.0,0.0001
2746.0,0.0002
2745.0,0.0002
2744.0,0.0002
2743.0,0.0003
2742.0,0.0003
2741.0,0.0002
2740.0,0.0002
2739.0,0.0003
2738.0,0.0003
2737.0,0.0003
2736.0,0.0003
2735.0,0.0003
2734.0,0.0003
2733.0,0.0002
2732.0,0.0002
2731.0,0.0002
2730.0,0.0002
2729.0,0.0002
2728.0,0.0002
2727.0,0.0003
2726.0,0.0003
2725.0,0.0002
2724.0,0.0002
2723.0,0.0002
2722.0,0.0002
2721.0,0.0002
2720.0,0.0002
2719.0,0.0002
2718.0,0.0003
2717.0,0.0003
2716.0,0.0003
2715.0,0.0003
2714.0,0.0003
2713.0,0.0003
2712.0,0.0003
2711.0,0.0003
2710.0,0.0003
2709.0,0.0003
2708.0,0.0003
2707.0,0.0003
2706.0,0.0002
2705.0,0.0002
2704.0,0.0002
2703.0,0.0002
2702.0,0.0003
2701.0,0.0003
2700.0,0.0003
2699.0,0.0002
2698.0,0.0002
2697.0,0.0001
2696.0,0.0001
2695.0,0.0001
2694.0,0.0001
2693.0,0.0001
2692.0,0.0001
2691.0,0.0001
2690.0,0.0001
2689.0,0.0001
2688.0,0.0001
2687.0,0.0002
2686.0,0.0002
2685.0,0.0002
2684.0,0.0002
2683.0,0.0002
2682.0,0.0002
2681.0,0.0002
2680.0,0.0003
2679.0,0.0003
2678.0,0.0003
2677.0,0.0003
2676.0,0.0003
2675.0,0.0003
2674.0,0.0003
2673.0,0.0003
2672.0,0.0003
2671.0,0.0003
2670.0,0.0003
2669.0,0.0003
2668.0,0.0003
2667.0,0.0002
2666.0,0.0001
2665.0,0.0001
2664.0,0.0001
2663.0,0.0002
2662.0,0.0003
2661.0,0.0003
2660.0,0.0003
2659.0,0.0002
2658.0,0.0002
2657.0,0.0002
2656.0,0.0002
2655.0,0.0002
2654.0,0.0002
2653.0,0.0002
2652.0,0.0001
2651.0,0.0001
2650.0,0.0001
2649.0,0.0001
2648.0,0.0001
2647.0,0.0001
2646.0,0.0001
2645.0,0.0001
2644.0,0.0002
2643.0,0.0002
2642.0,0.0002
2641.0,0.0002
2640.0,0.0002
2639.0,0.0002
2638.0,0.0002
2637.0,0.0002
2636.0,0.0002
2635.0,0.0002
2634.0,0.0002
2633.0,0.0002
2632.0,0.0002
2631.0,0.0002
2630.0,0.0002
2629.0,0.0002
2628.0,0.0001
2627.0,0.0001
2626.0,0.0001
2625.0,0.0002
2624.0,0.0002
2623.0,0.0002
2622.0,0.0001
2621.0,0.0001
2620.0,0.0001
2619.0,0.0001
2618.0,0.0002
2617.0,0.0002
2616.0,0.0002
2615.0,0.0002
2614.0,0.0001
2613.0,0.0001
2612.0,0.0
2611.0,0.0
2610.0,0.0
2609.0,0.0001
2608.0,0.0001
2607.0,0.0002
2606.0,0.0002
2605.0,0.0002
2604.0,0.0002
2603.0,0.0002
2602.0,0.0003
2601.0,0.0003
2600.0,0.0003
2599.0,0.0002
2598.0,0.0002
2597.0,0.0001
2596.0,0.0001
2595.0,0.0001
2594.0,0.0
2593.0,-0.0
2592.0,0.0
2591.0,0.0
2590.0,0.0
2589.0,0.0001
2588.0,0.0001
2587.0,0.0001
2586.0,0.0001
2585.0,0.0001
2584.0,0.0001
2583.0,0.0002
2582.0,0.0002
2581.0,0.0002
2580.0,0.0002
2579.0,0.0002
2578.0,0.0002
2577.0,0.0002
2576.0,0.0002
2575.0,0.0002
2574.0,0.0002
2573.0,0.0001
2572.0,0.0001
2571.0,0.0001
2570.0,0.0001
2569.0,0.0
2568.0,0.0
2567.0,-0.0
2566.0,-0.0001
2565.0,-0.0001
2564.0,-0.0
2563.0,0.0
2562.0,0.0001
2561.0,0.0001
2560.0,0.0001
2559.0,0.0
2558.0,-0.0
2557.0,0.0
2556.0,0.0001
2555.0,0.0001
2554.0,0.0002
2553.0,0.0001
2552.0,0.0001
2551.0,0.0
2550.0,-0.0
2549.0,-0.0
2548.0,0.0
2547.0,0.0
2546.0,0.0
2545.0,0.0
2544.0,0.0
2543.0,-0.0
2542.0,-0.0
2541.0,-0.0
2540.0,-0.0
2539.0,0.0
2538.0,0.0001
2537.0,0.0001
2536.0,0.0001
2535.0,0.0001
2534.0,0.0002
2533.0,0.0002
2532.0,0.0001
2531.0,0.0001
2530.0,0.0
2529.0,0.0
2528.0,0.0001
2527.0,0.0001
2526.0,0.0001
2525.0,0.0001
2524.0,0.0001
2523.0,0.0001
2522.0,0.0001
2521.0,0.0001
2520.0,0.0001
2519.0,0.0
2518.0,0.0
2517.0,0.0
2516.0,0.0
2515.0,0.0001
2514.0,0.0
2513.0,0.0
2512.0,0.0
2511.0,0.0
2510.0,0.0
2509.0,0.0
2508.0,0.0
2507.0,0.0
2506.0,0.0
2505.0,0.0
2504.0,-0.0
2503.0,-0.0
2502.0,-0.0
2501.0,0.0
2500.0,0.0001
2499.0,0.0002
2498.0,0.0002
2497.0,0.0001
2496.0,-0.0
2495.0,-0.0
2494.0,-0.0
2493.0,0.0
2492.0,0.0
2491.0,0.0
2490.0,-0.0
2489.0,-0.0
2488.0,-0.0
2487.0,-0.0
2486.0,-0.0
2485.0,-0.0
2484.0,0.0
2483.0,0.0
2482.0,0.0
2481.0,0.0
2480.0,-0.0
2479.0,-0.0001
2478.0,-0.0001
2477.0,-0.0001
2476.0,-0.0001
2475.0,-0.0002
2474.0,-0.0002
2473.0,-0.0002
2472.0,-0.0001
2471.0,-0.0001
2470.0,-0.0001
2469.0,-0.0001
2468.0,-0.0001
2467.0,-0.0
2466.0,-0.0
2465.0,-0.0
2464.0,-0.0001
2463.0,-0.0001
2462.0,-0.0001
2461.0,-0.0001
2460.0,-0.0
2459.0,-0.0
2458.0,-0.0
2457.0,-0.0001
2456.0,-0.0002
2455.0,-0.0002
2454.0,-0.0002
2453.0,-0.0002
2452.0,-0.0002
2451.0,-0.0001
2450.0,-0.0001
2449.0,-0.0001
2448.0,-0.0001
2447.0,-0.0001
2446.0,-0.0
2445.0,0.0
2444.0,0.0
2443.0,0.0
2442.0,-0.0
2441.0,-0.0001
2440.0,-0.0001
2439.0,-0.0001
2438.0,-0.0001
2437.0,-0.0001
2436.0,-0.0001
2435.0,-0.0
2434.0,-0.0
2433.0,0.0
2432.0,0.0
2431.0,0.0
2430.0,-0.0
2429.0,-0.0
2428.0,-0.0
2427.0,-0.0
2426.0,-0.0
2425.0,0.0
2424.0,0.0
2423.0,0.0
2422.0,0.0
2421.0,0.0001
2420.0,0.0001
2419.0,0.0001
2418.0,0.0001
2417.0,0.0001
2416.0,0.0001
2415.0,0.0
2414.0,-0.0
2413.0,-0.0001
2412.0,-0.0001
2411.0,-0.0001
2410.0,-0.0
2409.0,0.0001
2408.0,0.0001
2407.0,0.0001
2406.0,0.0001
2405.0,0.0
2404.0,-0.0
2403.0,-0.0
2402.0,0.0
2401.0,0.0001
2400.0,0.0002
2399.0,0.0002
2398.0,0.0001
2397.0,0.0001
2396.0,0.0
2395.0,0.0
2394.0,0.0001
2393.0,0.0001
2392.0,0.0001
2391.0,0.0001
2390.0,0.0001
2389.0,0.0001
2388.0,0.0001
2387.0,0.0002
2386.0,0.0003
2385.0,0.0003
2384.0,0.0003
2383.0,0.0003
2382.0,0.0002
2381.0,0.0001
2380.0,0.0001
2379.0,-0.0
2378.0,-0.0
2377.0,0.0001
2376.0,0.0002
2375.0,0.0003
2374.0,0.0001
2373.0,-0.0002
2372.0,-0.0003
2371.0,-0.0002
2370.0,0.0003
2369.0,0.001
2368.0,0.0017
2367.0,0.002
2366.0,0.0018
2365.0,0.0012
2364.0,0.0002
2363.0,-0.0009
2362.0,-0.0012
2361.0,-0.0002
2360.0,0.0012
2359.0,0.0015
2358.0,0.0006
2357.0,-0.0003
2356.0,-0.0003
2355.0,-0.0
2354.0,0.0002
2353.0,0.0002
2352.0,0.0001
2351.0,0.0001
2350.0,0.0001
2349.0,0.0002
2348.0,0.0004
2347.0,0.0006
2346.0,0.0008
2345.0,0.0011
2344.0,0.0012
2343.0,0.0009
2342.0,0.0001
2341.0,-0.0008
2340.0,-0.0013
2339.0,-0.0015
2338.0,-0.0014
2337.0,-0.0009
2336.0,-0.0003
2335.0,-0.0001
2334.0,-0.0003
2333.0,-0.0006
2332.0,-0.0007
2331.0,-0.0005
2330.0,-0.0003
2329.0,-0.0002
2328.0,-0.0002
2327.0,-0.0003
2326.0,-0.0003
2325.0,-0.0003
2324.0,-0.0003
2323.0,-0.0006
2322.0,-0.0009
2321.0,-0.0011
2320.0,-0.001
2319.0,-0.0009
2318.0,-0.0006
2317.0,-0.0004
2316.0,-0.0002
2315.0,-0.0002
2314.0,-0.0002
2313.0,-0.0002
2312.0,-0.0002
2311.0,-0.0002
2310.0,-0.0002
2309.0,-0.0001
2308.0,-0.0001
2307.0,-0.0001
2306.0,-0.0002
2305.0,-0.0002
2304.0,-0.0002
2303.0,-0.0001
2302.0,-0.0
2301.0,-0.0
2300.0,0.0
2299.0,0.0
2298.0,0.0
2297.0,0.0
2296.0,0.0
2295.0,0.0
2294.0,0.0
2293.0,0.0
2292.0,0.0
2291.0,0.0
2290.0,0.0
2289.0,-0.0
2288.0,-0.0001
2287.0,-0.0001
2286.0,-0.0002
2285.0,-0.0002
2284.0,-0.0001
2283.0,-0.0001
2282.0,-0.0001
2281.0,-0.0001
2280.0,-0.0001
2279.0,-0.0001
2278.0,-0.0002
2277.0,-0.0001
2276.0,-0.0001
2275.0,-0.0001
2274.0,-0.0001
2273.0,-0.0001
2272.0,-0.0001
2271.0,-0.0002
2270.0,-0.0002
2269.0,-0.0002
2268.0,-0.0002
2267.0,-0.0003
2266.0,-0.0002
2265.0,-0.0002
2264.0,-0.0002
2263.0,-0.0002
2262.0,-0.0002
2261.0,-0.0002
2260.0,-0.0003
2259.0,-0.0003
2258.0,-0.0003
2257.0,-0.0003
2256.0,-0.0003
2255.0,-0.0003
2254.0,-0.0002
2253.0,-0.0002
2252.0,-0.0002
2251.0,-0.0002
2250.0,-0.0003
2249.0,-0.0003
2248.0,-0.0003
2247.0,-0.0003
2246.0,-0.0004
2245.0,-0.0004
2244.0,-0.0004
2243.0,-0.0003
2242.0,-0.0003
2241.0,-0.0002
2240.0,-0.0002
2239.0,-0.0002
2238.0,-0.0003
2237.0,-0.0003
2236.0,-0.0003
2235.0,-0.0003
2234.0,-0.0004
2233.0,-0.0004
2232.0,-0.0005
2231.0,-0.0005
2230.0,-0.0005
2229.0,-0.0005
2228.0,-0.0005
2227.0,-0.0005
2226.0,-0.0005
2225.0,-0.0005
2224.0,-0.0005
2223.0,-0.0005
2222.0,-0.0005
2221.0,-0.0005
2220.0,-0.0005
2219.0,-0.0005
2218.0,-0.0005
2217.0,-0.0005
2216.0,-0.0004
2215.0,-0.0004
2214.0,-0.0004
2213.0,-0.0004
2212.0,-0.0004
2211.0,-0.0004
2210.0,-0.0004
2209.0,-0.0004
2208.0,-0.0004
2207.0,-0.0004
2206.0,-0.0005
2205.0,-0.0006
2204.0,-0.0006
2203.0,-0.0006
2202.0,-0.0006
2201.0,-0.0005
2200.0,-0.0005
2199.0,-0.0005
2198.0,-0.0005
2197.0,-0.0005
2196.0,-0.0005
2195.0,-0.0004
2194.0,-0.0004
2193.0,-0.0005
2192.0,-0.0005
2191.0,-0.0005
2190.0,-0.0006
2189.0,-0.0006
2188.0,-0.0006
2187.0,-0.0006
2186.0,-0.0006
2185.0,-0.0006
2184.0,-0.0005
2183.0,-0.0005
2182.0,-0.0005
2181.0,-0.0005
2180.0,-0.0005
2179.0,-0.0006
2178.0,-0.0006
2177.0,-0.0006
2176.0,-0.0006
2175.0,-0.0006
2174.0,-0.0006
2173.0,-0.0006
2172.0,-0.0006
2171.0,-0.0005
2170.0,-0.0005
2169.0,-0.0005
2168.0,-0.0006
2167.0,-0.0006
2166.0,-0.0006
2165.0,-0.0006
2164.0,-0.0005
2163.0,-0.0005
2162.0,-0.0005
2161.0,-0.0005
2160.0,-0.0005
2159.0,-0.0006
2158.0,-0.0006
2157.0,-0.0006
2156.0,-0.0006
2155.0,-0.0006
2154.0,-0.0006
2153.0,-0.0005
2152.0,-0.0005
2151.0,-0.0005
2150.0,-0.0005
2149.0,-0.0005
2148.0,-0.0005
2147.0,-0.0005
2146.0,-0.0004
2145.0,-0.0004
2144.0,-0.0005
2143.0,-0.0005
2142.0,-0.0006
2141.0,-0.0006
2140.0,-0.0006
2139.0,-0.0006
2138.0,-0.0006
2137.0,-0.0006
2136.0,-0.0006
2135.0,-0.0006
2134.0,-0.0006
2133.0,-0.0006
2132.0,-0.0005
2131.0,-0.0005
2130.0,-0.0005
2129.0,-0.0005
2128.0,-0.0005
2127.0,-0.0005
2126.0,-0.0004
2125.0,-0.0004
2124.0,-0.0004
2123.0,-0.0005
2122.0,-0.0006
2121.0,-0.0006
2120.0,-0.0005
2119.0,-0.0005
2118.0,-0.0005
2117.0,-0.0005
2116.0,-0.0005
2115.0,-0.0005
2114.0,-0.0005
2113.0,-0.0006
2112.0,-0.0006
2111.0,-0.0007
2110.0,-0.0007
2109.0,-0.0006
2108.0,-0.0006
2107.0,-0.0005
2106.0,-0.0005
2105.0,-0.0005
2104.0,-0.0005
2103.0,-0.0005
2102.0,-0.0005
2101.0,-0.0005
2100.0,-0.0005
2099.0,-0.0005
2098.0,-0.0005
2097.0,-0.0005
2096.0,-0.0004
2095.0,-0.0004
2094.0,-0.0004
2093.0,-0.0004
2092.0,-0.0005
2091.0,-0.0005
2090.0,-0.0005
2089.0,-0.0006
2088.0,-0.0006
2087.0,-0.0006
2086.0,-0.0006
2085.0,-0.0006
2084.0,-0.0006
2083.0,-0.0006
2082.0,-0.0006
2081.0,-0.0006
2080.0,-0.0006
2079.0,-0.0006
2078.0,-0.0006
2077.0,-0.0006
2076.0,-0.0006
2075.0,-0.0006
2074.0,-0.0006
2073.0,-0.0006
2072.0,-0.0006
2071.0,-0.0006
2070.0,-0.0006
2069.0,-0.0006
2068.0,-0.0006
2067.0,-0.0006
2066.0,-0.0007
2065.0,-0.0007
2064.0,-0.0007
2063.0,-0.0007
2062.0,-0.0007
2061.0,-0.0007
2060.0,-0.0008
2059.0,-0.0008
2058.0,-0.0008
2057.0,-0.0009
2056.0,-0.0009
2055.0,-0.0009
2054.0,-0.0009
2053.0,-0.0009
2052.0,-0.0009
2051.0,-0.001
2050.0,-0.0011
2049.0,-0.0011
2048.0,-0.001
2047.0,-0.001
2046.0,-0.0009
2045.0,-0.0009
2044.0,-0.0009
2043.0,-0.0009
2042.0,-0.001
2041.0,-0.0011
2040.0,-0.0011
2039.0,-0.0011
2038.0,-0.0011
2037.0,-0.0011
2036.0,-0.0011
2035.0,-0.0012
2034.0,-0.0012
2033.0,-0.0012
2032.0,-0.0012
2031.0,-0.0011
2030.0,-0.0011
2029.0,-0.0012
2028.0,-0.0012
2027.0,-0.0012
2026.0,-0.0012
2025.0,-0.0012
2024.0,-0.0012
2023.0,-0.0012
2022.0,-0.0012
2021.0,-0.0012
2020.0,-0.0012
2019.0,-0.0012
2018.0,-0.0012
2017.0,-0.0012
2016.0,-0.0012
2015.0,-0.0012
2014.0,-0.0012
2013.0,-0.0011
2012.0,-0.0011
2011.0,-0.0011
2010.0,-0.0012
2009.0,-0.0012
2008.0,-0.0012
2007.0,-0.0012
2006.0,-0.0012
2005.0,-0.0013
2004.0,-0.0013
2003.0,-0.0013
2002.0,-0.0013
2001.0,-0.0012
2000.0,-0.0012
1999.0,-0.0012
1998.0,-0.0012
1997.0,-0.0011
1996.0,-0.0011
1995.0,-0.0011
1994.0,-0.0011
1993.0,-0.0013
1992.0,-0.0013
1991.0,-0.0014
1990.0,-0.0014
1989.0,-0.0015
1988.0,-0.0015
1987.0,-0.0015
1986.0,-0.0015
1985.0,-0.0015
1984.0,-0.0014
1983.0,-0.0014
1982.0,-0.0014
1981.0,-0.0014
1980.0,-0.0013
1979.0,-0.0013
1978.0,-0.0013
1977.0,-0.0013
1976.0,-0.0013
1975.0,-0.0013
1974.0,-0.0014
1973.0,-0.0013
1972.0,-0.0013
1971.0,-0.0013
1970.0,-0.0013
1969.0,-0.0014
1968.0,-0.0014
1967.0,-0.0014
1966.0,-0.0014
1965.0,-0.0014
1964.0,-0.0014
1963.0,-0.0014
1962.0,-0.0014
1961.0,-0.0015
1960.0,-0.0015
1959.0,-0.0015
1958.0,-0.0015
1957.0,-0.0015
1956.0,-0.0015
1955.0,-0.0016
1954.0,-0.0016
1953.0,-0.0016
1952.0,-0.0017
1951.0,-0.0017
1950.0,-0.0017
1949.0,-0.0017
1948.0,-0.0017
1947.0,-0.0017
1946.0,-0.0017
1945.0,-0.0017
1944.0,-0.0017
1943.0,-0.0017
1942.0,-0.0018
1941.0,-0.0019
1940.0,-0.0019
1939.0,-0.0019
1938.0,-0.0019
1937.0,-0.0019
1936.0,-0.0019
1935.0,-0.0019
1934.0,-0.0018
1933.0,-0.0018
1932.0,-0.0018
1931.0,-0.0018
1930.0,-0.0019
1929.0,-0.0019
1928.0,-0.002
1927.0,-0.002
1926.0,-0.002
1925.0,-0.002
1924.0,-0.0019
1923.0,-0.0019
1922.0,-0.0019
1921.0,-0.002
1920.0,-0.002
1919.0,-0.002
1918.0,-0.002
1917.0,-0.002
1916.0,-0.002
1915.0,-0.002
1914.0,-0.002
1913.0,-0.002
1912.0,-0.002
1911.0,-0.002
1910.0,-0.002
1909.0,-0.002
1908.0,-0.002
1907.0,-0.0021
1906.0,-0.0021
1905.0,-0.0021
1904.0,-0.0021
1903.0,-0.0021
1902.0,-0.0022
1901.0,-0.0022
1900.0,-0.0022
1899.0,-0.0022
1898.0,-0.0022
1897.0,-0.0022
1896.0,-0.0022
1895.0,-0.0022
1894.0,-0.0022
1893.0,-0.0022
1892.0,-0.0022
1891.0,-0.0022
1890.0,-0.0023
1889.0,-0.0023
1888.0,-0.0023
1887.0,-0.0023
1886.0,-0.0023
1885.0,-0.0023
1884.0,-0.0023
1883.0,-0.0023
1882.0,-0.0024
1881.0,-0.0024
1880.0,-0.0024
1879.0,-0.0024
1878.0,-0.0024
1877.0,-0.0024
1876.0,-0.0024
1875.0,-0.0024
1874.0,-0.0024
1873.0,-0.0024
1872.0,-0.0024
1871.0,-0.0024
1870.0,-0.0024
1869.0,-0.0024
1868.0,-0.0024
1867.0,-0.0025
1866.0,-0.0025
1865.0,-0.0025
1864.0,-0.0024
1863.0,-0.0024
1862.0,-0.0024
1861.0,-0.0023
1860.0,-0.0024
1859.0,-0.0024
1858.0,-0.0025
1857.0,-0.0025
1856.0,-0.0024
1855.0,-0.0024
1854.0,-0.0023
1853.0,-0.0023
1852.0,-0.0022
1851.0,-0.0022
1850.0,-0.0022
1849.0,-0.0023
1848.0,-0.0023
1847.0,-0.0023
1846.0,-0.0023
1845.0,-0.0023
1844.0,-0.0023
1843.0,-0.0022
1842.0,-0.0022
1841.0,-0.0022
1840.0,-0.0021
1839.0,-0.0021
1838.0,-0.002
1837.0,-0.002
1836.0,-0.0019
1835.0,-0.0019
1834.0,-0.0018
1833.0,-0.0018
1832.0,-0.0017
1831.0,-0.0016
1830.0,-0.0016
1829.0,-0.0016
1828.0,-0.0016
1827.0,-0.0015
1826.0,-0.0014
1825.0,-0.0013
1824.0,-0.0013
1823.0,-0.0012
1822.0,-0.0012
1821.0,-0.0012
1820.0,-0.0012
1819.0,-0.0011
1818.0,-0.0011
1817.0,-0.0011
1816.0,-0.001
1815.0,-0.0009
1814.0,-0.0009
1813.0,-0.0008
1812.0,-0.0008
1811.0,-0.0007
1810.0,-0.0007
1809.0,-0.0006
1808.0,-0.0005
1807.0,-0.0004
1806.0,-0.0003
1805.0,-0.0002
1804.0,-0.0001
1803.0,0.0001
1802.0,0.0002
1801.0,0.0003
1800.0,0.0006
1799.0,0.0008
1798.0,0.001
1797.0,0.0012
1796.0,0.0015
1795.0,0.0019
1794.0,0.0022
1793.0,0.0027
1792.0,0.0035
1791.0,0.0042
1790.0,0.0049
1789.0,0.0058
1788.0,0.0068
1787.0,0.008
1786.0,0.0094
1785.0,0.011
1784.0,0.0128
1783.0,0.0145
1782.0,0.0164
1781.0,0.0186
1780.0,0.0209
1779.0,0.0229
1778.0,0.0247
1777.0,0.0265
1776.0,0.0284
1775.0,0.0301
1774.0,0.032
1773.0,0.0346
1772.0,0.0378
1771.0,0.0405
1770.0,0.0428
1769.0,0.0455
1768.0,0.0489
1767.0,0.0524
1766.0,0.0557
1765.0,0.0588
1764.0,0.0624
1763.0,0.0668
1762.0,0.0718
1761.0,0.0765
1760.0,0.0801
1759.0,0.083
1758.0,0.0858
1757.0,0.089
1756.0,0.0917
1755.0,0.0934
1754.0,0.0944
1753.0,0.0952
1752.0,0.0961
1751.0,0.0966
1750.0,0.0967
1749.0,0.0965
1748.0,0.0959
1747.0,0.0947
1746.0,0.093
1745.0,0.0909
1744.0,0.0882
1743.0,0.085
1742.0,0.0816
1741.0,0.0777
1740.0,0.073
1739.0,0.0684
1738.0,0.0648
1737.0,0.062
1736.0,0.0588
1735.0,0.0542
1734.0,0.0492
1733.0,0.0457
1732.0,0.0434
1731.0,0.0413
1730.0,0.0393
1729.0,0.0373
1728.0,0.0356
1727.0,0.0341
1726.0,0.0329
1725.0,0.0317
1724.0,0.0304
1723.0,0.0293
1722.0,0.0285
1721.0,0.0278
1720.0,0.027
1719.0,0.026
1718.0,0.025
1717.0,0.0241
1716.0,0.0234
1715.0,0.0227
1714.0,0.0221
1713.0,0.0216
1712.0,0.0209
1711.0,0.0202
1710.0,0.0196
1709.0,0.0191
1708.0,0.0185
1707.0,0.0179
1706.0,0.0173
1705.0,0.0167
1704.0,0.0162
1703.0,0.0158
1702.0,0.0154
1701.0,0.015
1700.0,0.0145
1699.0,0.0142
1698.0,0.014
1697.0,0.0138
1696.0,0.0134
1695.0,0.013
1694.0,0.0127
1693.0,0.0125
1692.0,0.0123
1691.0,0.0121
1690.0,0.0119
1689.0,0.0117
1688.0,0.0115
1687.0,0.0113
1686.0,0.0111
1685.0,0.0109
1684.0,0.0107
1683.0,0.0105
1682.0,0.0104
1681.0,0.0103
1680.0,0.0102
1679.0,0.0101
1678.0,0.01
1677.0,0.0098
1676.0,0.0097
1675.0,0.0095
1674.0,0.0094
1673.0,0.0094
1672.0,0.0093
1671.0,0.0093
1670.0,0.0093
1669.0,0.0092
1668.0,0.0091
1667.0,0.009
1666.0,0.009
1665.0,0.0089
1664.0,0.0089
1663.0,0.0088
1662.0,0.0088
1661.0,0.0087
1660.0,0.0087
1659.0,0.0086
1658.0,0.0085
1657.0,0.0084
1656.0,0.0082
1655.0,0.008
1654.0,0.0079
1653.0,0.008
1652.0,0.0082
1651.0,0.0082
1650.0,0.0081
1649.0,0.0081
1648.0,0.008
1647.0,0.008
1646.0,0.0079
1645.0,0.0078
1644.0,0.0077
1643.0,0.0076
1642.0,0.0075
1641.0,0.0074
1640.0,0.0073
1639.0,0.0072
1638.0,0.0071
1637.0,0.007
1636.0,0.007
1635.0,0.007
1634.0,0.007
1633.0,0.0069
1632.0,0.0069
1631.0,0.0068
1630.0,0.0067
1629.0,0.0066
1628.0,0.0065
1627.0,0.0065
1626.0,0.0065
1625.0,0.0065
1624.0,0.0065
1623.0,0.0065
1622.0,0.0064
1621.0,0.0063
1620.0,0.0062
1619.0,0.006
1618.0,0.006
1617.0,0.0059
1616.0,0.0059
1615.0,0.0057
1614.0,0.0056
1613.0,0.0055
1612.0,0.0055
1611.0,0.0054
1610.0,0.0053
1609.0,0.0052
1608.0,0.0051
1607.0,0.005
1606.0,0.0049
1605.0,0.0049
1604.0,0.0048
1603.0,0.0047
1602.0,0.0046
1601.0,0.0045
1600.0,0.0043
1599.0,0.0042
1598.0,0.0042
1597.0,0.0041
1596.0,0.0041
1595.0,0.0041
1594.0,0.0041
1593.0,0.004
1592.0,0.0039
1591.0,0.0039
1590.0,0.0039
1589.0,0.0038
1588.0,0.0037
1587.0,0.0036
1586.0,0.0036
1585.0,0.0035
1584.0,0.0035
1583.0,0.0034
1582.0,0.0034
1581.0,0.0033
1580.0,0.0032
1579.0,0.0032
1578.0,0.0031
1577.0,0.0031
1576.0,0.0029
1575.0,0.0028
1574.0,0.0027
1573.0,0.0027
1572.0,0.0026
1571.0,0.0025
1570.0,0.0025
1569.0,0.0024
1568.0,0.0023
1567.0,0.0022
1566.0,0.0022
1565.0,0.0021
1564.0,0.0021
1563.0,0.0021
1562.0,0.0021
1561.0,0.0021
1560.0,0.0022
1559.0,0.002
1558.0,0.0018
1557.0,0.0017
1556.0,0.0017
1555.0,0.0017
1554.0,0.0016
1553.0,0.0015
1552.0,0.0015
1551.0,0.0015
1550.0,0.0014
1549.0,0.0014
1548.0,0.0014
1547.0,0.0014
1546.0,0.0014
1545.0,0.0014
1544.0,0.0013
1543.0,0.0013
1542.0,0.0013
1541.0,0.0013
1540.0,0.0013
1539.0,0.0012
1538.0,0.0012
1537.0,0.0013
1536.0,0.0013
1535.0,0.0012
1534.0,0.0012
1533.0,0.001
1532.0,0.0009
1531.0,0.0009
1530.0,0.0009
1529.0,0.001
1528.0,0.0011
1527.0,0.0012
1526.0,0.0011
1525.0,0.0011
1524.0,0.001
1523.0,0.0009
1522.0,0.0008
1521.0,0.0008
1520.0,0.0008
1519.0,0.0008
1518.0,0.0008
1517.0,0.0009
1516.0,0.0009
1515.0,0.0009
1514.0,0.0009
1513.0,0.0009
1512.0,0.0009
1511.0,0.0008
1510.0,0.0008
1509.0,0.0008
1508.0,0.0009
1507.0,0.0008
1506.0,0.0007
1505.0,0.0007
1504.0,0.0008
1503.0,0.0009
1502.0,0.001
1501.0,0.001
1500.0,0.0011
1499.0,0.001
1498.0,0.001
1497.0,0.0009
1496.0,0.0009
1495.0,0.0009
1494.0,0.0009
1493.0,0.0009
1492.0,0.001
1491.0,0.001
1490.0,0.0009
1489.0,0.0009
1488.0,0.0009
1487.0,0.0009
1486.0,0.0009
1485.0,0.001
1484.0,0.0011
1483.0,0.0012
1482.0,0.0013
1481.0,0.0014
1480.0,0.0016
1479.0,0.0017
1478.0,0.0018
1477.0,0.0021
1476.0,0.0023
1475.0,0.0025
1474.0,0.0028
1473.0,0.0034
1472.0,0.0042
1471.0,0.005
1470.0,0.0058
1469.0,0.0067
1468.0,0.0077
1467.0,0.009
1466.0,0.0107
1465.0,0.0131
1464.0,0.0154
1463.0,0.0174
1462.0,0.019
1461.0,0.0205
1460.0,0.0221
1459.0,0.0237
1458.0,0.0261
1457.0,0.0289
1456.0,0.0306
1455.0,0.0314
1454.0,0.0318
1453.0,0.0321
1452.0,0.0323
1451.0,0.0323
1450.0,0.032
1449.0,0.0315
1448.0,0.0307
1447.0,0.0295
1446.0,0.0281
1445.0,0.0266
1444.0,0.0247
1443.0,0.0226
1442.0,0.0205
1441.0,0.0185
1440.0,0.0167
1439.0,0.0152
1438.0,0.0135
1437.0,0.0118
1436.0,0.0102
1435.0,0.0093
1434.0,0.0088
1433.0,0.0083
1432.0,0.0077
1431.0,0.0071
1430.0,0.0065
1429.0,0.006
1428.0,0.0056
1427.0,0.0053
1426.0,0.005
1425.0,0.0047
1424.0,0.0043
1423.0,0.0041
1422.0,0.0039
1421.0,0.0037
1420.0,0.0034
1419.0,0.0031
1418.0,0.0028
1417.0,0.0026
1416.0,0.0024
1415.0,0.0023
1414.0,0.0023
1413.0,0.0022
1412.0,0.0021
1411.0,0.002
1410.0,0.0019
1409.0,0.0018
1408.0,0.0018
1407.0,0.0018
1406.0,0.0018
1405.0,0.0018
1404.0,0.0019
1403.0,0.0021
1402.0,0.0023
1401.0,0.0026
1400.0,0.003
1399.0,0.0035
1398.0,0.0042
1397.0,0.0049
1396.0,0.006
1395.0,0.0075
1394.0,0.0091
1393.0,0.0108
1392.0,0.0123
1391.0,0.0139
1390.0,0.0156
1389.0,0.0174
1388.0,0.0196
1387.0,0.0218
1386.0,0.0236
1385.0,0.025
1384.0,0.026
1383.0,0.0266
1382.0,0.0269
1381.0,0.0268
1380.0,0.0262
1379.0,0.0252
1378.0,0.024
1377.0,0.0228
1376.0,0.0217
1375.0,0.021
1374.0,0.0209
1373.0,0.0212
1372.0,0.0219
1371.0,0.0227
1370.0,0.0236
1369.0,0.0245
1368.0,0.0253
1367.0,0.0258
1366.0,0.0261
1365.0,0.0264
1364.0,0.0266
1363.0,0.0269
1362.0,0.0272
1361.0,0.0274
1360.0,0.0275
1359.0,0.0275
1358.0,0.0275
1357.0,0.0273
1356.0,0.0269
1355.0,0.0264
1354.0,0.0258
1353.0,0.0252
1352.0,0.0244
1351.0,0.0235
1350.0,0.0227
1349.0,0.0218
1348.0,0.021
1347.0,0.0202
1346.0,0.0195
1345.0,0.0188
1344.0,0.0182
1343.0,0.0176
1342.0,0.017
1341.0,0.0166
1340.0,0.0161
1339.0,0.0156
1338.0,0.0151
1337.0,0.0147
1336.0,0.0144
1335.0,0.0141
1334.0,0.0138
1333.0,0.0136
1332.0,0.0134
1331.0,0.0132
1330.0,0.013
1329.0,0.0129
1328.0,0.0127
1327.0,0.0126
1326.0,0.0126
1325.0,0.0125
1324.0,0.0125
1323.0,0.0124
1322.0,0.0124
1321.0,0.0124
1320.0,0.0124
1319.0,0.0124
1318.0,0.0124
1317.0,0.0124
1316.0,0.0124
1315.0,0.0124
1314.0,0.0123
1313.0,0.0123
1312.0,0.0123
1311.0,0.0124
1310.0,0.0125
1309.0,0.0125
1308.0,0.0126
1307.0,0.0126
1306.0,0.0125
1305.0,0.0125
1304.0,0.0125
1303.0,0.0124
1302.0,0.0124
1301.0,0.0123
1300.0,0.0121
1299.0,0.012
1298.0,0.0117
1297.0,0.0115
1296.0,0.0111
1295.0,0.0107
1294.0,0.0103
1293.0,0.0099
1292.0,0.0097
1291.0,0.0096
1290.0,0.0097
1289.0,0.01
1288.0,0.0105
1287.0,0.0111
1286.0,0.012
1285.0,0.013
1284.0,0.0141
1283.0,0.0153
1282.0,0.0166
1281.0,0.018
1280.0,0.0194
1279.0,0.0209
1278.0,0.0223
1277.0,0.0236
1276.0,0.0249
1275.0,0.0259
1274.0,0.0269
1273.0,0.0278
1272.0,0.0286
1271.0,0.0293
1270.0,0.0298
1269.0,0.0302
1268.0,0.0305
1267.0,0.0306
1266.0,0.0306
1265.0,0.0305
1264.0,0.0302
1263.0,0.0299
1262.0,0.0295
1261.0,0.0291
1260.0,0.0286
1259.0,0.0281
1258.0,0.0275
1257.0,0.027
1256.0,0.0265
1255.0,0.026
1254.0,0.0256
1253.0,0.0252
1252.0,0.0248
1251.0,0.0245
1250.0,0.0243
1249.0,0.0241
1248.0,0.024
1247.0,0.024
1246.0,0.024
1245.0,0.0241
1244.0,0.0242
1243.0,0.0244
1242.0,0.0247
1241.0,0.025
1240.0,0.0254
1239.0,0.0257
1238.0,0.0261
1237.0,0.0266
1236.0,0.0271
1235.0,0.0278
1234.0,0.0285
1233.0,0.0293
1232.0,0.0303
1231.0,0.0313
1230.0,0.0326
1229.0,0.0339
1228.0,0.0354
1227.0,0.0369
1226.0,0.0386
1225.0,0.0403
1224.0,0.0421
1223.0,0.044
1222.0,0.046
1221.0,0.048
1220.0,0.0501
1219.0,0.0523
1218.0,0.0544
1217.0,0.0565
1216.0,0.0585
1215.0,0.0603
1214.0,0.062
1213.0,0.0635
1212.0,0.0649
1211.0,0.0661
1210.0,0.067
1209.0,0.0677
1208.0,0.0684
1207.0,0.0688
1206.0,0.0693
1205.0,0.0697
1204.0,0.0703
1203.0,0.0709
1202.0,0.0716
1201.0,0.0724
1200.0,0.0735
1199.0,0.0746
1198.0,0.076
1197.0,0.0777
1196.0,0.0798
1195.0,0.0821
1194.0,0.0848
1193.0,0.0879
1192.0,0.0914
1191.0,0.0951
1190.0,0.0992
1189.0,0.1036
1188.0,0.1083
1187.0,0.113
1186.0,0.1176
1185.0,0.1221
1184.0,0.126
1183.0,0.129
1182.0,0.1307
1181.0,0.1309
1180.0,0.1294
1179.0,0.1258
1178.0,0.1204
1177.0,0.1137
1176.0,0.106
1175.0,0.0978
1174.0,0.0896
1173.0,0.0818
1172.0,0.0746
1171.0,0.068
1170.0,0.062
1169.0,0.0567
1168.0,0.052
1167.0,0.0478
1166.0,0.0442
1165.0,0.041
1164.0,0.0382
1163.0,0.0358
1162.0,0.0336
1161.0,0.0316
1160.0,0.0298
1159.0,0.0282
1158.0,0.0269
1157.0,0.0259
1156.0,0.0251
1155.0,0.0245
1154.0,0.0242
1153.0,0.0242
1152.0,0.0244
1151.0,0.0248
1150.0,0.0257
1149.0,0.0269
1148.0,0.0285
1147.0,0.0307
1146.0,0.0335
1145.0,0.0368
1144.0,0.0406
1143.0,0.0449
1142.0,0.0495
1141.0,0.0544
1140.0,0.0594
1139.0,0.0644
1138.0,0.0692
1137.0,0.0738
1136.0,0.0779
1135.0,0.0816
1134.0,0.0848
1133.0,0.0876
1132.0,0.0901
1131.0,0.0922
1130.0,0.0938
1129.0,0.0948
1128.0,0.0952
1127.0,0.0948
1126.0,0.0936
1125.0,0.0919
1124.0,0.0898
1123.0,0.0875
1122.0,0.0851
1121.0,0.083
1120.0,0.0811
1119.0,0.0796
1118.0,0.0783
1117.0,0.0774
1116.0,0.0769
1115.0,0.0768
1114.0,0.0771
1113.0,0.0779
1112.0,0.0794
1111.0,0.0815
1110.0,0.0842
1109.0,0.0874
1108.0,0.0912
1107.0,0.0954
1106.0,0.0998
1105.0,0.1045
1104.0,0.1092
1103.0,0.1139
1102.0,0.1186
1101.0,0.1232
1100.0,0.1279
1099.0,0.1324
1098.0,0.1369
1097.0,0.1414
1096.0,0.1458
1095.0,0.15
1094.0,0.1541
1093.0,0.1582
1092.0,0.1623
1091.0,0.1663
1090.0,0.1701
1089.0,0.1738
1088.0,0.1773
1087.0,0.1803
1086.0,0.1827
1085.0,0.1846
1084.0,0.186
1083.0,0.1867
1082.0,0.1866
1081.0,0.1858
1080.0,0.1844
1079.0,0.1822
1078.0,0.1793
1077.0,0.176
1076.0,0.1721
1075.0,0.1677
1074.0,0.1627
1073.0,0.1575
1072.0,0.152
1071.0,0.1463
1070.0,0.1405
1069.0,0.1346
1068.0,0.1289
1067.0,0.1233
1066.0,0.1179
1065.0,0.113
1064.0,0.1087
1063.0,0.105
1062.0,0.1021
1061.0,0.1
1060.0,0.0988
1059.0,0.0982
1058.0,0.0981
1057.0,0.0985
1056.0,0.0991
1055.0,0.1
1054.0,0.101
1053.0,0.1021
1052.0,0.1033
1051.0,0.1046
1050.0,0.106
1049.0,0.1074
1048.0,0.1088
1047.0,0.1101
1046.0,0.1113
1045.0,0.1124
1044.0,0.1131
1043.0,0.1134
1042.0,0.1132
1041.0,0.1126
1040.0,0.1117
1039.0,0.1103
1038.0,0.1085
1037.0,0.1064
1036.0,0.1041
1035.0,0.1018
1034.0,0.0994
1033.0,0.0971
1032.0,0.095
1031.0,0.093
1030.0,0.0912
1029.0,0.0897
1028.0,0.0884
1027.0,0.0872
1026.0,0.086
1025.0,0.0848
1024.0,0.0836
1023.0,0.0823
1022.0,0.0808
1021.0,0.0792
1020.0,0.0776
1019.0,0.0757
1018.0,0.0738
1017.0,0.072
1016.0,0.0702
1015.0,0.0685
1014.0,0.0668
1013.0,0.0651
1012.0,0.0634
1011.0,0.0618
1010.0,0.0603
1009.0,0.059
1008.0,0.0579
1007.0,0.0568
1006.0,0.0557
1005.0,0.0546
1004.0,0.0537
1003.0,0.0528
1002.0,0.0521
1001.0,0.0513
1000.0,0.0505
999.0,0.0497
998.0,0.049
997.0,0.0483
996.0,0.0477
995.0,0.0471
994.0,0.0465
993.0,0.046
992.0,0.0456
991.0,0.0451
990.0,0.0445
989.0,0.044
988.0,0.0435
987.0,0.043
986.0,0.0425
985.0,0.0422
984.0,0.0418
983.0,0.0414
982.0,0.041
981.0,0.0405
980.0,0.0401
979.0,0.0397
978.0,0.0393
977.0,0.039
976.0,0.0387
975.0,0.0384
974.0,0.038
973.0,0.0377
972.0,0.0374
971.0,0.0371
970.0,0.0368
969.0,0.0364
968.0,0.0362
967.0,0.0359
966.0,0.0358
965.0,0.0358
964.0,0.0359
963.0,0.0362
962.0,0.0366
961.0,0.037
960.0,0.0376
959.0,0.0381
958.0,0.0386
957.0,0.039
956.0,0.0393
955.0,0.0393
954.0,0.0392
953.0,0.0389
952.0,0.0386
951.0,0.0382
950.0,0.0378
949.0,0.0374
948.0,0.0371
947.0,0.0368
946.0,0.0364
945.0,0.0361
944.0,0.0358
943.0,0.0355
942.0,0.0352
941.0,0.035
940.0,0.0348
939.0,0.0346
938.0,0.0344
937.0,0.0342
936.0,0.034
935.0,0.0339
934.0,0.0338
933.0,0.0337
932.0,0.0336
931.0,0.0336
930.0,0.0335
929.0,0.0335
928.0,0.0334
927.0,0.0333
926.0,0.0332
925.0,0.0331
924.0,0.0331
923.0,0.033
922.0,0.033
921.0,0.0329
920.0,0.0329
919.0,0.0329
918.0,0.0329
917.0,0.0329
916.0,0.0328
915.0,0.0328
914.0,0.0327
913.0,0.0326
912.0,0.0325
911.0,0.0325
910.0,0.0324
909.0,0.0324
908.0,0.0324
907.0,0.0323
906.0,0.0322
905.0,0.0321
904.0,0.0321
903.0,0.0321
902.0,0.0321
901.0,0.0321
900.0,0.0321
899.0,0.032
898.0,0.0319
897.0,0.0319
896.0,0.0319
895.0,0.0318
894.0,0.0318
893.0,0.0317
892.0,0.0315
891.0,0.0314
890.0,0.0312
889.0,0.031
888.0,0.0307
887.0,0.0304
886.0,0.0302
885.0,0.0301
884.0,0.0301
883.0,0.0304
882.0,0.031
881.0,0.0319
880.0,0.0332
879.0,0.0346
878.0,0.0362
877.0,0.0379
876.0,0.0397
875.0,0.0414
874.0,0.0431
873.0,0.0446
872.0,0.0459
871.0,0.047
870.0,0.0479
869.0,0.0486
868.0,0.0492
867.0,0.0495
866.0,0.0496
865.0,0.0496
864.0,0.0495
863.0,0.0491
862.0,0.0484
861.0,0.0476
860.0,0.0465
859.0,0.0452
858.0,0.0437
857.0,0.0422
856.0,0.0406
855.0,0.0391
854.0,0.0378
853.0,0.0368
852.0,0.0362
851.0,0.0358
850.0,0.0356
849.0,0.0354
848.0,0.0351
847.0,0.0348
846.0,0.0343
845.0,0.0337
844.0,0.033
843.0,0.0323
842.0,0.0316
841.0,0.031
840.0,0.0306
839.0,0.0302
838.0,0.0298
837.0,0.0294
836.0,0.029
835.0,0.0286
834.0,0.0282
833.0,0.0279
832.0,0.0277
831.0,0.0276
830.0,0.0274
829.0,0.0272
828.0,0.027
827.0,0.0267
826.0,0.0264
825.0,0.0263
824.0,0.0261
823.0,0.026
822.0,0.0258
821.0,0.0256
820.0,0.0255
819.0,0.0253
818.0,0.0252
817.0,0.0251
816.0,0.0249
815.0,0.0248
814.0,0.0247
813.0,0.0247
812.0,0.0247
811.0,0.0247
810.0,0.0246
809.0,0.0244
808.0,0.0243
807.0,0.0241
806.0,0.024
805.0,0.0239
804.0,0.0237
803.0,0.0236
802.0,0.0234
801.0,0.0234
800.0,0.0233
799.0,0.0232
798.0,0.023
797.0,0.0229
796.0,0.0228
795.0,0.0228
794.0,0.0228
793.0,0.0228
792.0,0.0229
791.0,0.0231
790.0,0.0233
789.0,0.0236
788.0,0.0239
787.0,0.0242
786.0,0.0246
785.0,0.025
784.0,0.0254
783.0,0.0258
782.0,0.0262
781.0,0.0267
780.0,0.0271
779.0,0.0276
778.0,0.0281
777.0,0.0287
776.0,0.0293
775.0,0.0299
774.0,0.0305
773.0,0.0311
772.0,0.0318
771.0,0.0325
770.0,0.0333
769.0,0.0341
768.0,0.0351
767.0,0.0362
766.0,0.0375
765.0,0.0388
764.0,0.0402
763.0,0.0416
762.0,0.0431
761.0,0.0446
760.0,0.0462
759.0,0.0476
758.0,0.0489
757.0,0.0499
756.0,0.0507
755.0,0.0513
754.0,0.0517
753.0,0.0517
752.0,0.0516
751.0,0.0512
750.0,0.0507
749.0,0.0504
748.0,0.0502
747.0,0.0501
746.0,0.05
745.0,0.0497
744.0,0.0493
743.0,0.0487
742.0,0.0481
741.0,0.0476
740.0,0.0472
739.0,0.0466
738.0,0.0457
737.0,0.0446
736.0,0.0432
735.0,0.0417
734.0,0.0402
733.0,0.0388
732.0,0.0376
731.0,0.0365
730.0,0.0356
729.0,0.0347
728.0,0.0342
727.0,0.034
726.0,0.0339
725.0,0.034
724.0,0.0342
723.0,0.0346
722.0,0.0353
721.0,0.0362
720.0,0.0372
719.0,0.038
718.0,0.0389
717.0,0.0397
716.0,0.0407
715.0,0.0415
714.0,0.042
713.0,0.0424
712.0,0.0428
711.0,0.0432
710.0,0.0435
709.0,0.0439
708.0,0.0443
707.0,0.0447
706.0,0.0451
705.0,0.0455
704.0,0.0457
703.0,0.0457
702.0,0.0454
701.0,0.045
700.0,0.0448
699.0,0.0447
698.0,0.0448
697.0,0.045
696.0,0.0453
695.0,0.0459
694.0,0.0465
693.0,0.0469
692.0,0.0471
691.0,0.0468
690.0,0.0463
689.0,0.046
688.0,0.046
687.0,0.0464
686.0,0.0466
685.0,0.0465
684.0,0.0459
683.0,0.045
682.0,0.0441
681.0,0.0436
680.0,0.0435
679.0,0.0436
678.0,0.0438
677.0,0.0438
676.0,0.0438
675.0,0.044
674.0,0.0442
673.0,0.0444
672.0,0.0441
671.0,0.0434
670.0,0.0428
669.0,0.0433
668.0,0.0445
667.0,0.0448
666.0,0.0448
665.0,0.0448
664.0,0.0449
663.0,0.0446
662.0,0.0439
661.0,0.0431
660.0,0.0427
659.0,0.0426
658.0,0.0426
657.0,0.0426
656.0,0.0429
655.0,0.0432
654.0,0.0435
653.0,0.0436
652.0,0.0436
651.0,0.0434
650.0,0.0428
649.0,0.0421
648.0,0.0415
647.0,0.041
646.0,0.0407
645.0,0.0408
644.0,0.0413
643.0,0.0421
642.0,0.0426
641.0,0.0429
640.0,0.0429
639.0,0.0425
638.0,0.0419
637.0,0.0411
636.0,0.0406
635.0,0.0408
634.0,0.0414
633.0,0.0418
632.0,0.0417
631.0,0.0412
630.0,0.0408
629.0,0.0405
628.0,0.0403
627.0,0.0399
626.0,0.0398
625.0,0.0398
624.0,0.0395
623.0,0.0388
622.0,0.0381
621.0,0.0379
620.0,0.0385
619.0,0.0391
618.0,0.0393
617.0,0.0388
616.0,0.038
615.0,0.0371
614.0,0.0362
613.0,0.0357
612.0,0.0357
611.0,0.0359
610.0,0.0359
609.0,0.0359
608.0,0.0359
607.0,0.036
606.0,0.0359
605.0,0.0353
604.0,0.0344
603.0,0.0335
602.0,0.0332
601.0,0.0333
600.0,0.0335
