nm,Intensity
791.377,8611.7
791.652,8533.6
791.927,8455.2
792.202,8489.1
792.477,8399.36
792.752,8226.98
793.027,8338.88
793.301,8393.84
793.576,8337.98
793.851,8240.08
794.126,8256.6
794.401,8217.2
794.676,8243.02
794.951,8193.4
795.225,8175.32
795.5,8257.92
795.775,8304.44
796.05,8205.96
796.325,8184.22
796.599,8161.78
796.874,8180.02
797.149,8141.02
797.424,8106.02
797.698,8103.34
797.973,8058.7
798.248,8056.38
798.523,8024.54
798.797,8011.54
799.072,8082.0
799.347,7961.84
799.622,7989.96
799.896,8006.86
800.171,7962.48
800.446,7971.26
800.72,7997.02
800.995,7983.42
801.27,7968.1
801.544,7898.36
801.819,7921.66
802.094,7857.72
802.368,7819.78
802.643,7699.48
802.918,7845.62
803.192,7799.6
803.467,7761.04
803.742,7720.9
804.016,7694.4
804.291,7663.52
804.565,7736.48
804.84,7757.1
805.114,7741.0
805.389,7658.98
805.664,7684.32
805.938,7633.28
806.213,7602.48
806.487,7562.68
806.762,7574.74
807.036,7553.64
807.311,7570.7
807.585,7561.34
807.86,7508.52
808.134,7535.82
808.409,7525.92
808.683,7460.0
808.958,7495.28
809.232,7440.2
809.507,7450.52
809.781,7596.3
810.056,7556.28
810.33,7522.94
810.605,7453.5
810.879,7456.96
811.153,7407.56
811.428,7369.28
811.702,7324.52
811.977,7350.86
812.251,7415.64
812.525,7396.54
812.8,7336.88
813.074,7290.94
813.349,7302.96
813.623,7283.76
813.897,7323.44
814.172,7304.42
814.446,7255.4
814.72,7177.14
814.995,7158.28
815.269,7158.36
815.543,7112.56
815.818,7114.9
816.092,7090.66
816.366,7096.88
816.64,6968.0
816.915,7022.22
817.189,7014.16
817.463,6948.78
817.737,6956.84
818.012,6924.42
818.286,6934.56
818.56,6970.66
818.834,6948.26
819.109,6916.76
819.383,6883.3
819.657,6852.18
819.931,6861.82
820.205,6859.28
820.48,6802.62
820.754,6777.98
821.028,6753.36
821.302,6756.44
821.576,6805.04
821.85,6691.16
822.125,6714.36
822.399,6749.4
822.673,6719.48
822.947,6682.62
823.221,6678.14
823.495,6630.84
823.769,6647.12
824.043,6735.48
824.317,6642.02
824.591,6659.86
824.865,6634.7
825.14,6625.2
825.414,6584.92
825.688,6548.44
825.962,6492.88
826.236,6547.3
826.51,6562.98
826.784,6523.24
827.058,6450.06
827.332,6443.36
827.606,6439.54
827.88,6443.5
828.154,6448.54
828.428,6417.42
828.702,6400.42
828.976,6424.22
829.249,6409.28
829.523,6376.68
829.797,6319.66
830.071,6306.94
830.345,6265.02
830.619,6310.76
830.893,6279.88
831.167,6255.58
831.441,6210.48
831.715,6243.92
831.988,6246.28
832.262,6193.02
832.536,6176.74
832.81,6188.5
833.084,6189.48
833.358,6249.08
833.632,6197.7
833.905,6147.02
834.179,6093.46
834.453,6099.18
834.727,6100.76
835.001,6104.98
835.274,6129.44
835.548,6101.42
835.822,6076.02
836.096,6116.8
836.369,6100.48
836.643,6049.06
836.917,6114.92
837.191,6103.2
837.464,6109.22
837.738,6191.66
838.012,6274.0
838.285,6225.34
838.559,6206.22
838.833,6148.24
839.106,6058.56
839.38,6030.16
839.654,6049.16
839.927,6146.16
840.201,6163.94
840.475,6153.02
840.748,6041.82
841.022,5982.4
841.295,5978.44
841.569,6003.18
841.843,5956.14
842.116,5932.28
842.39,5886.4
842.663,5856.84
842.937,5868.92
843.211,5907.06
843.484,5875.42
843.758,5862.88
844.031,5841.06
844.305,5860.96
844.578,5880.58
844.852,5853.42
845.125,5825.84
845.399,5821.26
845.672,5846.04
845.946,5799.58
846.219,5828.12
846.493,5794.5
846.766,5738.06
847.039,5755.62
847.313,5823.74
847.586,5839.36
847.86,5844.88
848.133,5787.64
848.407,5741.68
848.68,5745.98
848.953,5787.74
849.227,5780.26
849.5,5835.36
849.773,5796.0
850.047,5778.44
850.32,5731.16
850.593,5752.58
850.867,5764.64
851.14,5774.4
851.413,5769.28
851.687,5769.16
851.96,5747.68
852.233,5715.38
852.507,5721.02
852.78,5741.12
853.053,5708.62
853.326,5684.06
853.6,5650.02
853.873,5708.2
854.146,5693.88
854.419,5723.54
854.693,5686.24
854.966,5669.36
855.239,5674.82
855.512,5659.36
855.785,5687.94
856.059,5672.62
856.332,5645.38
856.605,5661.7
856.878,5617.56
857.151,5581.96
857.424,5562.58
857.698,5592.08
857.971,5598.54
858.244,5599.88
858.517,5617.7
858.79,5635.54
859.063,5656.08
859.336,5607.68
859.609,5595.4
859.882,5566.36
860.155,5528.22
860.428,5571.92
860.701,5586.58
860.974,5595.14
861.247,5594.92
861.52,5563.7
861.793,5558.54
862.066,5582.22
862.339,5613.24
862.612,5634.96
862.885,5662.18
863.158,5648.32
863.431,5652.58
863.704,5618.08
863.977,5579.34
864.25,5587.5
864.523,5573.38
864.796,5559.34
865.069,5552.38
865.342,5557.56
865.615,5549.76
865.888,5516.84
866.16,5473.34
866.433,5500.82
866.706,5522.38
866.979,5517.78
867.252,5519.74
867.525,5483.58
867.798,5481.0
868.07,5510.74
868.343,5494.52
868.616,5497.18
868.889,5489.34
869.162,5453.78
869.434,5448.86
869.707,5470.9
869.98,5463.2
870.253,5449.58
870.525,5465.64
870.798,5453.1
871.071,5464.14
871.344,5474.62
871.616,5443.82
871.889,5422.74
872.162,5414.44
872.434,5446.68
872.707,5414.92
872.98,5421.36
873.252,5417.46
873.525,5417.78
873.798,5431.84
874.07,5442.48
874.343,5441.08
874.615,5455.06
874.888,5462.4
875.161,5435.88
875.433,5431.98
875.706,5434.92
875.978,5456.66
876.251,5452.76
876.524,5446.9
876.796,5441.24
877.069,5423.34
877.341,5441.5
877.614,5426.48
877.886,5401.98
878.159,5397.62
878.431,5379.78
878.704,5381.1
878.976,5362.86
879.249,5361.46
879.521,5313.28
879.794,5292.1
880.066,5292.62
880.338,5272.22
880.611,5276.72
880.883,5269.16
881.156,5280.26
881.428,5261.92
881.7,5251.84
881.973,5242.74
882.245,5255.26
882.518,5249.18
882.79,5236.5
883.062,5233.34
883.335,5237.74
883.607,5254.5
883.879,5257.04
884.152,5234.62
884.424,5245.96
884.696,5254.98
884.968,5290.0
885.241,5321.84
885.513,5327.62
885.785,5356.28
886.058,5314.28
886.33,5338.3
886.602,5317.24
886.874,5258.62
887.146,5253.54
887.419,5217.12
887.691,5175.78
887.963,5146.28
888.235,5126.72
888.507,5093.06
888.78,5077.12
889.052,5062.2
889.324,5103.24
889.596,5114.86
889.868,5103.88
890.14,5078.78
890.412,5064.16
890.684,5038.28
890.957,5023.26
891.229,5061.46
891.501,5040.52
891.773,5047.02
892.045,5058.84
892.317,5081.46
892.589,5067.52
892.861,5014.8
893.133,5002.54
893.405,5010.28
893.677,5012.32
893.949,4974.2
894.221,4954.18
894.493,4959.94
894.765,4966.26
895.037,4955.6
895.309,4948.78
895.581,4946.86
895.853,4913.78
896.125,4903.48
896.397,4929.68
896.668,4938.5
896.94,4943.74
897.212,4942.5
897.484,4935.9
897.756,4900.98
898.028,4897.82
898.3,4905.5
898.571,4915.8
898.843,4882.5
899.115,4879.9
899.387,4871.98
899.659,4876.12
899.931,4845.96
900.202,4839.46
900.474,4822.4
900.746,4826.1
901.018,4811.44
901.289,4788.6
901.561,4802.44
901.833,4804.0
902.105,4796.2
902.376,4776.3
902.648,4780.18
902.92,4761.94
903.191,4780.14
903.463,4765.38
903.735,4764.7
904.006,4733.58
904.278,4746.98
904.55,4742.14
904.821,4724.62
905.093,4719.54
905.365,4724.32
905.636,4741.22
905.908,4724.98
906.179,4710.46
906.451,4690.9
906.722,4701.12
906.994,4683.06
907.266,4678.96
907.537,4678.18
907.809,4667.26
908.08,4676.24
908.352,4674.98
908.623,4648.14
908.895,4637.96
909.166,4619.04
909.438,4607.56
909.709,4628.46
909.981,4639.74
910.252,4638.8
910.523,4639.58
910.795,4632.68
911.066,4623.48
911.338,4596.52
911.609,4577.2
911.881,4582.26
912.152,4582.14
912.423,4575.22
912.695,4577.22
912.966,4576.42
913.237,4575.52
913.509,4564.9
913.78,4549.46
914.051,4543.9
914.323,4529.82
914.594,4527.88
914.865,4514.02
915.136,4516.78
915.408,4518.78
915.679,4512.46
915.95,4516.8
916.221,4505.9
916.493,4501.92
916.764,4493.5
917.035,4477.6
917.306,4478.18
917.578,4476.48
917.849,4464.48
918.12,4457.14
918.391,4465.42
918.662,4470.24
918.933,4460.8
919.204,4464.9
919.476,4449.5
919.747,4431.34
920.018,4434.9
920.289,4431.5
920.56,4418.08
920.831,4406.38
921.102,4417.64
921.373,4415.36
921.644,4418.66
921.915,4406.2
922.186,4391.48
922.457,4391.14
922.728,4390.34
922.999,4385.22
923.27,4374.76
923.541,4359.46
923.812,4358.24
924.083,4364.9
924.354,4366.14
924.625,4346.7
924.896,4340.68
925.167,4342.06
925.438,4336.16
925.709,4333.44
925.98,4326.24
926.251,4326.94
926.522,4325.02
926.792,4327.26
927.063,4325.38
927.334,4321.28
927.605,4318.34
927.876,4301.72
928.147,4285.82
928.417,4291.98
928.688,4292.38
928.959,4276.74
929.23,4282.08
929.501,4285.08
929.771,4282.82
930.042,4274.62
930.313,4267.5
930.584,4263.0
930.854,4261.04
931.125,4246.28
931.396,4240.84
931.666,4245.7
931.937,4247.44
932.208,4244.76
932.478,4231.7
932.749,4225.2
933.02,4227.9
933.29,4221.06
933.561,4210.12
933.832,4220.2
934.102,4213.32
934.373,4206.14
934.643,4207.48
934.914,4202.32
935.184,4198.96
935.455,4189.68
935.726,4182.44
935.996,4183.2
936.267,4176.12
936.537,4167.24
936.808,4172.34
937.078,4169.36
937.349,4165.92
937.619,4167.98
937.89,4163.42
938.16,4155.32
938.43,4153.44
938.701,4151.88
938.971,4146.98
939.242,4141.32
939.512,4148.6
939.782,4151.84
940.053,4148.28
940.323,4142.16
940.594,4139.32
940.864,4137.24
941.134,4130.62
941.405,4113.48
941.675,4116.6
941.945,4123.0
942.216,4121.0
942.486,4120.24
942.756,4114.44
943.026,4106.06
943.297,4101.8
943.567,4099.76
943.837,4093.32
944.107,4089.32
944.378,4089.32
944.648,4096.72
944.918,4088.68
945.188,4088.62
945.458,4090.34
945.729,4081.1
945.999,4078.34
946.269,4067.34
946.539,4071.1
946.809,4073.6
947.079,4076.2
947.349,4071.06
947.62,4065.7
947.89,4071.9
948.16,4064.4
948.43,4057.64
948.7,4054.26
948.97,4056.12
949.24,4047.66
949.51,4046.0
949.78,4047.12
950.05,4048.86
950.32,4044.6
950.59,4047.36
950.86,4046.42
951.13,4042.44
951.4,4032.92
951.67,4028.4
951.94,4024.58
952.21,4025.74
952.48,4029.54
952.75,4029.16
953.02,4022.32
953.289,4021.0
953.559,4020.2
953.829,4014.26
954.099,4016.66
954.369,4011.98
954.639,4009.1
954.909,4006.46
955.178,4004.74
955.448,4011.28
955.718,4005.44
955.988,4000.32
956.257,3997.56
956.527,3997.28
956.797,3989.24
957.067,3990.18
957.336,3991.88
957.606,3994.88
957.876,3991.04
958.146,3995.6
958.415,3991.72
958.685,3983.12
958.955,3984.46
959.224,3984.36
959.494,3981.66
959.764,3978.98
960.033,3974.36
960.303,3975.72
960.572,3971.72
960.842,3967.12
961.112,3971.28
961.381,3964.74
961.651,3966.9
961.92,3968.52
962.19,3966.04
962.459,3964.62
962.729,3964.0
962.998,3956.08
963.268,3959.64
963.537,3963.16
963.807,3958.36
964.076,3956.18
964.346,3952.72
964.615,3949.12
964.885,3947.86
965.154,3947.72
965.424,3945.14
965.693,3946.94
965.962,3944.16
966.232,3944.6
966.501,3939.96
966.771,3941.88
967.04,3941.9
967.309,3939.32
967.579,3937.46
967.848,3934.62
968.117,3934.16
968.387,3935.0
968.656,3935.56
968.925,3932.28
969.194,3934.36
969.464,3928.18
969.733,3920.72
970.002,3921.52
970.271,3926.68
970.541,3928.38
970.81,3925.28
971.079,3925.5
971.348,3919.64
971.617,3914.84
971.887,3916.22
972.156,3919.24
972.425,3920.14
972.694,3916.8
972.963,3915.42
973.232,3911.36
973.501,3909.06
973.77,3910.68
974.04,3909.66
974.309,3907.58
974.578,3906.78
974.847,3903.56
975.116,3903.96
975.385,3905.76
975.654,3905.6
975.923,3897.46
976.192,3901.44
976.461,3897.28
976.73,3898.86
976.999,3896.0
977.268,3898.06
977.537,3892.66
977.806,3892.14
978.074,3893.2
978.343,3894.08
978.612,3892.64
978.881,3892.68
979.15,3892.82
979.419,3891.48
979.688,3888.98
979.957,3887.44
980.225,3885.3
980.494,3885.86
980.763,3881.9
981.032,3884.06
981.301,3883.54
981.569,3884.1
981.838,3882.78
982.107,3884.1
982.376,3881.38
982.644,3878.82
982.913,3877.9
983.182,3875.64
983.451,3874.96
983.719,3874.54
983.988,3874.96
984.257,3878.04
984.525,3878.94
984.794,3875.94
985.063,3874.76
985.331,3875.74
985.6,3871.74
985.868,3873.38
986.137,3870.5
986.406,3871.06
986.674,3867.86
986.943,3868.04
987.211,3866.56
987.48,3866.96
987.748,3867.86
988.017,3866.94
988.285,3865.24
988.554,3862.04
988.822,3860.98
989.091,3861.94
989.359,3862.52
989.628,3863.14
989.896,3862.68
990.164,3859.26
990.433,3860.1
990.701,3859.08
990.97,3857.16
991.238,3857.38
991.506,3856.4
991.775,3856.76
992.043,3854.88
992.311,3854.36
992.58,3852.86
992.848,3852.08
993.116,3852.64
993.385,3853.0
993.653,3850.88
993.921,3850.5
994.19,3849.44
994.458,3848.24
994.726,3847.38
994.994,3850.9
995.262,3851.54
995.531,3849.84
995.799,3851.62
996.067,3849.98
996.335,3851.18
996.603,3848.92
996.872,3849.02
997.14,3847.18
997.408,3846.02
997.676,3846.4
997.944,3843.78
998.212,3845.06
998.48,3844.8
998.748,3842.8
999.016,3842.4
999.284,3843.2
999.552,3843.8
999.82,3843.0
1000.09,3843.76
1000.36,3839.18
1000.62,3837.86
1000.89,3837.24
1001.16,3836.26
1001.43,3836.36
1001.7,3835.88
1001.96,3833.86
1002.23,3834.1
1002.5,3832.02
1002.77,3832.54
1003.04,3831.54
1003.3,3833.44
1003.57,3830.88
1003.84,3831.18
1004.11,3829.38
1004.38,3827.94
1004.64,3828.62
1004.91,3828.96
1005.18,3828.86
1005.45,3826.92
1005.71,3826.46
1005.98,3825.46
1006.25,3826.52
1006.52,3825.46
1006.79,3824.74
1007.05,3826.36
1007.32,3825.52
1007.59,3825.04
1007.86,3826.48
1008.12,3826.76
1008.39,3829.12
1008.66,3831.02
1008.93,3833.7
1009.19,3835.28
1009.46,3837.02
1009.73,3841.92
1010.0,3840.86
1010.26,3840.92
1010.53,3840.78
1010.8,3844.4
1011.07,3845.46
1011.33,3846.06
1011.6,3845.6
1011.87,3848.96
1012.14,3851.16
1012.4,3851.92
1012.67,3852.36
1012.94,3851.82
1013.21,3856.18
1013.47,3858.26
1013.74,3859.76
1014.01,3865.78
1014.28,3863.54
1014.54,3867.64
1014.81,3870.4
1015.08,3863.7
1015.35,3861.5
1015.61,3863.32
1015.88,3861.42
1016.15,3860.26
1016.42,3857.86
1016.68,3854.46
1016.95,3854.58
1017.22,3849.5
1017.48,3848.92
1017.75,3845.76
1018.02,3844.06
1018.29,3842.5
1018.55,3840.84
1018.82,3836.46
1019.09,3835.04
1019.36,3833.38
1019.62,3829.84
1019.89,3827.72
1020.16,3826.52
1020.42,3824.84
1020.69,3824.92
1020.96,3825.22
1021.23,3823.7
1021.49,3822.36
1021.76,3822.68
1022.03,3821.78
1022.29,3820.88
1022.56,3819.68
1022.83,3819.78
1023.09,3816.82
1023.36,3815.26
1023.63,3812.64
1023.9,3813.3
1024.16,3811.18
1024.43,3810.96
1024.7,3808.76
1024.96,3805.58
1025.23,3804.18
1025.5,3803.8
1025.76,3802.8
1026.03,3799.4
1026.3,3799.84
1026.56,3798.58
1026.83,3798.4
1027.1,3797.58
1027.37,3798.32
1027.63,3797.02
1027.9,3797.76
1028.17,3796.98
1028.43,3796.38
1028.7,3796.42
1028.97,3795.54
1029.23,3795.64
1029.5,3795.5
1029.77,3794.7
1030.03,3796.18
1030.3,3794.9
1030.57,3793.56
1030.83,3793.62
1031.1,3794.24
1031.37,3793.6
1031.63,3792.78
1031.9,3792.98
1032.17,3792.74
1032.43,3791.94
1032.7,3792.24
1032.97,3793.3
1033.23,3793.04
1033.5,3792.54
1033.77,3793.08
1034.03,3793.1
1034.3,3793.04
1034.57,3791.84
1034.83,3791.28
1035.1,3791.1
1035.36,3791.5
1035.63,3791.62
1035.9,3791.2
1036.16,3790.94
1036.43,3791.28
1036.7,3790.18
1036.96,3790.38
1037.23,3789.12
1037.5,3789.54
1037.76,3788.54
1038.03,3789.36
1038.3,3789.06
1038.56,3789.92
1038.83,3789.26
1039.09,3789.44
1039.36,3788.38
1039.63,3789.04
1039.89,3788.28
1040.16,3789.16
1040.43,3787.72
1040.69,3788.02
1040.96,3787.48
1041.22,3787.68
1041.49,3787.86
1041.76,3788.52
1042.02,3786.72
1042.29,3786.9
1042.55,3786.42
1042.82,3787.7
1043.09,3786.7
1043.35,3786.36
1043.62,3786.6
1043.89,3786.16
1044.15,3786.42
1044.42,3787.04
1044.68,3786.64
1044.95,3786.64
1045.22,3786.36
1045.48,3785.46
1045.75,3784.5
1046.01,3785.52
1046.28,3785.42
1046.55,3786.0
1046.81,3784.74
1047.08,3785.14
1047.34,3785.2
1047.61,3784.48
1047.88,3784.22
1048.14,3784.96
1048.41,3785.78
1048.67,3784.48
1048.94,3785.32
1049.2,3784.78
1049.47,3784.68
1049.74,3783.98
1050.0,3783.5
1050.27,3783.94
1050.53,3784.32
1050.8,3784.1
1051.06,3784.2
1051.33,3784.4
1051.6,3784.2
1051.86,3784.5
1052.13,3784.08
1052.39,3784.98
1052.66,3783.64
1052.92,3783.98
1053.19,3784.12
1053.46,3783.32
1053.72,3784.12
1053.99,3783.86
1054.25,3783.42
1054.52,3782.56
1054.78,3784.34
1055.05,3783.06
1055.32,3784.22
1055.58,3784.12
1055.85,3783.68
1056.11,3782.78
1056.38,3783.48
1056.64,3783.54
1056.91,3782.12
1057.17,3783.46
1057.44,3782.96
1057.7,3782.52
1057.97,3781.34
1058.24,3782.8
1058.5,3782.8
1058.77,3782.9
1059.03,3781.98
1059.3,3783.02
1059.56,3782.78
1059.83,3783.28
1060.09,3782.0
1060.36,3783.08
1060.62,3782.54
1060.89,3782.8
1061.15,3782.18
1061.42,3781.64
1061.68,3782.24
1061.95,3782.94
1062.22,3781.92
1062.48,3783.4
1062.75,3782.24
1063.01,3782.26
1063.28,3781.2
1063.54,3782.24
1063.81,3780.9
1064.07,3782.18
1064.34,3782.2
1064.6,3780.88
1064.87,3781.36
1065.13,3781.3
1065.4,3780.96
1065.66,3781.48
1065.93,3780.88
1066.19,3781.66
1066.46,3781.4
1066.72,3781.76
1066.99,3781.16
1067.25,3781.04
1067.52,3780.76
1067.78,3780.36
1068.05,3780.04
