nm,Intensity
526.547,833.45
526.684,832.3
526.821,832.4
526.958,832.5
527.095,831.1
527.232,832.6
527.368,831.65
527.505,830.8
527.642,832.75
527.779,831.7
527.916,832.65
528.052,832.85
528.189,831.65
528.326,832.25
528.463,831.35
528.599,832.2
528.736,832.2
528.873,831.7
529.009,832.3
529.146,832.25
529.283,831.6
529.419,831.95
529.556,832.7
529.693,832.45
529.829,831.1
529.966,832.5
530.103,832.9
530.239,832.75
530.376,831.6
530.512,831.75
530.649,831.35
530.785,833.15
530.922,832.55
531.059,832.85
531.195,832.3
531.332,831.8
531.468,832.55
531.605,832.35
531.741,832.4
531.878,833.55
532.014,842.75
532.151,883.7
532.287,874.95
532.423,839.8
532.56,831.85
532.696,832.2
532.833,832.3
532.969,832.2
533.106,832.3
533.242,832.2
533.378,832.4
533.515,833.1
533.651,838.15
533.787,885.25
533.924,1045.55
534.06,1247.4
534.196,1317.2
534.333,1324.35
534.469,1312.4
534.605,1302.85
534.742,1308.3
534.878,1297.55
535.014,1284.75
535.15,1280.1
535.287,1271.95
535.423,1269.8
535.559,1278.95
535.695,1284.05
535.832,1282.2
535.968,1280.35
536.104,1271.2
536.24,1270.3
536.376,1268.3
536.513,1268.9
536.649,1270.6
536.785,1269.25
536.921,1276.75
537.057,1276.8
537.193,1267.65
537.329,1282.9
537.465,1275.95
537.602,1276.75
537.738,1281.8
537.874,1289.55
538.01,1294.8
538.146,1297.85
538.282,1294.65
538.418,1298.05
538.554,1300.15
538.69,1297.15
538.826,1302.0
538.962,1301.5
539.098,1302.15
539.234,1311.05
539.37,1306.65
539.506,1308.5
539.642,1314.3
539.778,1318.45
539.914,1321.95
540.05,1322.8
540.186,1330.05
540.322,1326.3
540.458,1325.4
540.594,1329.4
540.729,1329.45
540.865,1324.3
541.001,1331.95
541.137,1332.85
541.273,1338.0
541.409,1335.9
541.545,1335.65
541.68,1338.75
541.816,1338.7
541.952,1338.6
542.088,1345.95
542.224,1344.55
542.36,1346.3
542.495,1346.95
542.631,1363.05
542.767,1353.15
542.903,1360.55
543.038,1362.85
543.174,1368.45
543.31,1361.05
543.446,1367.9
543.581,1369.75
543.717,1373.95
543.853,1378.3
543.988,1370.75
544.124,1376.0
544.26,1381.25
544.395,1378.95
544.531,1383.45
544.667,1384.6
544.802,1390.65
544.938,1385.55
545.074,1397.35
545.209,1388.7
545.345,1393.5
545.481,1394.8
545.616,1400.3
545.752,1399.05
545.887,1402.35
546.023,1405.8
546.158,1403.6
546.294,1402.75
546.43,1403.55
546.565,1410.55
546.701,1408.25
546.836,1403.0
546.972,1412.8
547.107,1413.25
547.243,1412.9
547.378,1417.5
547.514,1420.65
547.649,1420.15
547.785,1418.95
547.92,1424.65
548.056,1417.45
548.191,1424.5
548.326,1422.85
548.462,1424.1
548.597,1430.25
548.733,1435.8
548.868,1434.9
549.004,1437.2
549.139,1437.85
549.274,1437.75
549.41,1447.7
549.545,1447.85
549.68,1444.15
549.816,1450.65
549.951,1444.05
550.086,1446.3
550.222,1451.85
550.357,1452.0
550.492,1455.85
550.628,1472.2
550.763,1485.9
550.898,1471.65
551.034,1457.15
551.169,1465.25
551.304,1465.4
551.439,1462.75
551.575,1466.5
551.71,1471.75
551.845,1473.4
551.98,1470.45
552.116,1475.8
552.251,1473.85
552.386,1471.8
552.521,1477.4
552.656,1480.45
552.792,1494.45
552.927,1491.3
553.062,1494.05
553.197,1485.5
553.332,1481.95
553.467,1483.5
553.603,1491.55
553.738,1498.15
553.873,1499.8
554.008,1497.45
554.143,1497.7
554.278,1504.0
554.413,1501.9
554.548,1503.4
554.683,1508.6
554.819,1511.05
554.954,1508.15
555.089,1506.0
555.224,1517.25
555.359,1510.1
555.494,1524.2
555.629,1525.8
555.764,1519.55
555.899,1526.8
556.034,1522.75
556.169,1520.95
556.304,1529.65
556.439,1535.05
556.574,1526.75
556.709,1536.8
556.844,1537.5
556.979,1547.4
557.114,1542.0
557.249,1545.2
557.384,1556.55
557.519,1576.5
557.653,1592.95
557.788,1584.55
557.923,1561.45
558.058,1555.35
558.193,1550.3
558.328,1546.45
558.463,1554.3
558.598,1546.9
558.733,1550.45
558.867,1547.3
559.002,1549.4
559.137,1552.05
559.272,1557.6
559.407,1561.0
559.542,1564.05
559.677,1565.65
559.811,1571.8
559.946,1567.9
560.081,1567.75
560.216,1583.65
560.351,1580.9
560.485,1584.15
560.62,1573.25
560.755,1580.85
560.89,1580.8
561.024,1589.15
561.159,1585.85
561.294,1587.35
561.429,1587.2
561.563,1600.5
561.698,1594.85
561.833,1599.4
561.967,1591.6
562.102,1604.2
562.237,1608.15
562.371,1606.5
562.506,1606.8
562.641,1607.35
562.775,1610.8
562.91,1611.55
563.045,1615.3
563.179,1622.8
563.314,1621.8
563.449,1628.9
563.583,1637.95
563.718,1637.6
563.853,1632.75
563.987,1631.1
564.122,1635.3
564.256,1644.8
564.391,1653.0
564.525,1656.2
564.66,1651.75
564.795,1660.55
564.929,1674.35
565.064,1680.75
565.198,1691.85
565.333,1684.9
565.467,1681.85
565.602,1690.15
565.736,1683.2
565.871,1689.8
566.005,1685.55
566.14,1684.25
566.274,1675.5
566.409,1679.15
566.543,1669.75
566.678,1677.1
566.812,1675.15
566.947,1671.1
567.081,1672.3
567.216,1678.8
567.35,1673.85
567.484,1673.65
567.619,1687.4
567.753,1691.1
567.888,1695.0
568.022,1686.65
568.156,1688.55
568.291,1698.3
568.425,1699.2
568.56,1700.8
568.694,1700.65
568.828,1700.85
568.963,1708.95
569.097,1712.85
569.231,1711.05
569.366,1715.3
569.5,1722.85
569.634,1722.6
569.769,1726.7
569.903,1724.15
570.037,1730.45
570.172,1729.85
570.306,1736.35
570.44,1743.35
570.575,1738.6
570.709,1743.4
570.843,1754.9
570.977,1769.25
571.112,1781.35
571.246,1789.85
571.38,1801.4
571.514,1800.85
571.649,1788.95
571.783,1769.45
571.917,1767.8
572.051,1767.2
572.185,1766.25
572.32,1759.15
572.454,1756.65
572.588,1763.2
572.722,1762.25
572.856,1770.95
572.991,1761.3
573.125,1763.25
573.259,1777.0
573.393,1770.95
573.527,1775.65
573.661,1784.15
573.795,1785.15
573.93,1775.65
574.064,1782.5
574.198,1789.8
574.332,1783.8
574.466,1789.35
574.6,1790.7
574.734,1801.4
574.868,1807.9
575.002,1804.15
575.136,1788.4
575.271,1803.5
575.405,1804.85
575.539,1803.7
575.673,1812.6
575.807,1808.8
575.941,1809.25
576.075,1817.1
576.209,1819.6
576.343,1823.7
576.477,1819.0
576.611,1825.8
576.745,1823.0
576.879,1831.75
577.013,1830.5
577.147,1833.55
577.281,1839.2
577.415,1836.15
577.549,1835.3
577.683,1834.0
577.817,1834.55
577.951,1826.6
578.085,1836.45
578.218,1837.9
578.352,1839.15
578.486,1831.75
578.62,1842.75
578.754,1840.6
578.888,1849.45
579.022,1840.75
579.156,1850.7
579.29,1854.55
579.424,1849.05
579.557,1858.85
579.691,1852.45
579.825,1847.45
579.959,1854.5
580.093,1847.05
580.227,1861.3
580.361,1856.15
580.494,1856.55
580.628,1854.9
580.762,1860.65
580.896,1858.2
581.03,1862.8
581.164,1870.5
581.297,1862.4
581.431,1868.6
581.565,1882.0
581.699,1895.2
581.832,1924.2
581.966,1972.45
582.1,2085.15
582.234,2138.15
582.368,2060.1
582.501,1952.45
582.635,1905.5
582.769,1897.5
582.903,1897.4
583.036,1903.55
583.17,1902.45
583.304,1902.75
583.437,1901.8
583.571,1899.1
583.705,1898.5
583.838,1905.5
583.972,1898.0
584.106,1907.8
584.24,1907.2
584.373,1902.0
584.507,1916.35
584.641,1907.8
584.774,1907.45
584.908,1902.5
585.041,1915.0
585.175,1919.75
585.309,1916.0
585.442,1931.85
585.576,1956.75
585.71,1987.8
585.843,2019.8
585.977,2050.0
586.11,2056.1
586.244,2044.0
586.378,2013.35
586.511,1990.4
586.645,1976.15
586.778,1953.6
586.912,1957.5
587.045,1959.5
587.179,1942.75
587.313,1944.2
587.446,1945.2
587.58,1941.35
587.713,1936.85
587.847,1946.75
587.98,1944.5
588.114,1942.7
588.247,1938.25
588.381,1937.4
588.514,1942.75
588.648,1930.85
588.781,1934.75
588.915,1926.9
589.048,1931.25
589.182,1934.5
589.315,1937.5
589.449,1931.95
589.582,1931.6
589.715,1929.5
589.849,1939.8
589.982,1937.6
590.116,1945.75
590.249,1937.45
590.383,1935.75
590.516,1938.7
590.649,1950.75
590.783,1943.35
590.916,1950.7
591.05,1954.9
591.183,1951.75
591.316,1958.7
591.45,1950.75
591.583,1956.9
591.717,1943.0
591.85,1949.5
591.983,1957.7
592.117,1960.2
592.25,1945.5
592.383,1955.25
592.517,1954.0
592.65,1942.15
592.783,1950.9
592.917,1948.6
593.05,1943.75
593.183,1951.9
593.317,1953.7
593.45,1951.05
593.583,1953.7
593.717,1944.1
593.85,1949.15
593.983,1949.55
594.116,1956.45
594.25,1949.95
594.383,1956.5
594.516,1959.25
594.649,1954.4
594.783,1961.65
594.916,1962.55
595.049,1961.2
595.182,1968.85
595.316,1971.3
595.449,1970.85
595.582,1976.85
595.715,1974.2
595.849,1968.9
595.982,1978.1
596.115,1969.55
596.248,1971.35
596.381,1983.15
596.514,1972.7
596.648,1980.65
596.781,1978.65
596.914,1975.55
597.047,1981.85
597.18,1977.25
597.313,1985.65
597.447,1989.3
597.58,1984.4
597.713,1988.55
597.846,1981.9
597.979,1999.6
598.112,1989.1
598.245,1995.65
598.379,1994.2
598.512,1998.2
598.645,1999.85
598.778,1995.2
598.911,2010.1
599.044,2006.5
599.177,2004.0
599.31,2017.0
599.443,2008.7
599.576,2005.45
599.709,2015.2
599.842,2009.75
599.975,1995.6
600.109,2006.0
600.242,2005.4
600.375,1993.75
600.508,1997.45
600.641,2008.35
600.774,1994.75
600.907,1990.35
601.04,1997.05
601.173,1997.75
601.306,1996.2
601.439,1997.95
601.572,2006.05
601.705,2009.4
601.838,1998.35
601.971,1994.5
602.104,1997.7
602.237,2002.95
602.37,2004.2
602.503,2001.25
602.636,2010.45
602.768,2018.1
602.901,2013.95
603.034,2013.3
603.167,2020.15
603.3,2018.7
603.433,2021.6
603.566,2018.75
603.699,2022.2
603.832,2029.55
603.965,2020.55
604.098,2024.05
604.231,2021.75
604.364,2024.75
604.496,2026.45
604.629,2024.1
604.762,2012.85
604.895,2013.8
605.028,2010.0
605.161,2017.35
605.294,2004.25
605.427,1997.05
605.559,2006.65
605.692,1999.3
605.825,1998.45
605.958,1999.45
606.091,1995.0
606.224,1995.9
606.356,2006.05
606.489,1996.65
606.622,2004.25
606.755,2009.9
606.888,2003.2
607.02,2014.65
607.153,2014.85
607.286,2023.5
607.419,2007.15
607.552,2020.0
607.684,2025.55
607.817,2025.9
607.95,2030.25
608.083,2033.95
608.215,2032.3
608.348,2040.65
608.481,2049.4
608.614,2045.9
608.746,2040.8
608.879,2051.15
609.012,2053.55
609.145,2056.6
609.277,2043.55
609.41,2055.15
609.543,2055.4
609.675,2047.3
609.808,2059.55
609.941,2054.55
610.074,2057.6
610.206,2062.4
610.339,2057.4
610.472,2062.35
610.604,2053.85
610.737,2060.25
610.87,2061.05
611.002,2071.4
611.135,2060.4
611.268,2072.1
611.4,2074.05
611.533,2075.2
611.666,2079.95
611.798,2081.3
611.931,2090.8
612.063,2092.4
612.196,2100.65
612.329,2112.65
612.461,2113.7
612.594,2113.9
612.727,2128.65
612.859,2118.45
612.992,2139.25
613.124,2126.9
613.257,2140.8
613.39,2134.45
613.522,2147.25
613.655,2148.9
613.787,2150.75
613.92,2154.75
614.052,2158.3
614.185,2163.25
614.317,2159.05
614.45,2174.35
614.583,2168.15
614.715,2162.2
614.848,2172.6
614.98,2166.85
615.113,2172.45
615.245,2172.15
615.378,2178.4
615.51,2167.75
615.643,2171.1
615.775,2178.25
615.908,2176.35
616.04,2170.5
616.173,2182.7
616.305,2186.3
616.438,2192.9
616.57,2182.8
616.703,2198.75
616.835,2207.25
616.968,2210.25
617.1,2216.15
617.233,2211.65
617.365,2224.1
617.498,2233.3
617.63,2220.75
617.762,2227.15
617.895,2221.25
618.027,2235.85
618.16,2250.9
618.292,2241.2
618.425,2249.2
618.557,2242.25
618.689,2245.95
618.822,2253.2
618.954,2250.55
619.087,2263.5
619.219,2253.35
619.351,2257.25
619.484,2255.65
619.616,2263.2
619.749,2266.5
619.881,2271.0
620.013,2257.45
620.146,2261.6
620.278,2272.9
620.41,2277.05
620.543,2267.85
620.675,2285.95
620.808,2280.05
620.94,2280.45
621.072,2274.6
621.205,2288.85
621.337,2290.1
621.469,2289.35
621.602,2298.4
621.734,2310.0
621.866,2299.6
621.998,2300.0
622.131,2320.85
622.263,2311.7
622.395,2321.5
622.528,2325.75
622.66,2322.05
622.792,2335.8
622.925,2340.1
623.057,2341.15
623.189,2340.85
623.321,2344.3
623.454,2351.0
623.586,2352.55
623.718,2370.9
623.85,2353.2
623.983,2368.1
624.115,2380.8
624.247,2363.15
624.379,2377.8
624.512,2381.25
624.644,2385.05
624.776,2387.4
624.908,2389.7
625.041,2396.1
625.173,2392.3
625.305,2385.7
625.437,2380.35
625.569,2401.45
625.702,2401.55
625.834,2393.55
625.966,2411.35
626.098,2405.2
626.23,2402.25
626.363,2410.0
626.495,2407.25
626.627,2406.35
626.759,2421.45
626.891,2416.3
627.024,2411.35
627.156,2415.0
627.288,2416.8
627.42,2417.65
627.552,2418.8
627.684,2431.3
627.816,2429.2
627.949,2427.65
628.081,2428.6
628.213,2433.55
628.345,2437.25
628.477,2448.45
628.609,2443.8
628.741,2456.2
628.874,2449.8
629.006,2458.6
629.138,2454.0
629.27,2463.5
629.402,2466.35
629.534,2477.75
629.666,2470.4
629.798,2478.25
629.93,2474.45
630.062,2480.85
630.195,2484.15
630.327,2488.15
630.459,2492.0
630.591,2492.3
630.723,2499.05
630.855,2484.8
630.987,2503.1
631.119,2503.35
631.251,2513.35
631.383,2516.9
631.515,2522.9
631.647,2518.35
631.779,2527.75
631.911,2531.2
632.043,2534.1
632.175,2533.6
632.307,2523.25
632.439,2541.0
632.571,2527.9
632.703,2523.9
632.835,2512.35
632.967,2519.65
633.099,2535.05
633.231,2532.2
633.363,2521.45
633.495,2533.05
633.627,2517.2
633.759,2534.55
633.891,2520.7
634.023,2521.1
634.155,2528.2
634.287,2517.05
634.419,2528.05
634.551,2532.9
634.683,2516.15
634.815,2539.6
634.947,2539.55
635.079,2529.0
635.211,2537.65
635.343,2537.75
635.475,2550.85
635.607,2560.8
635.739,2549.45
635.871,2561.9
636.003,2568.35
636.135,2567.6
636.267,2585.05
636.398,2590.0
636.53,2606.55
636.662,2607.05
636.794,2606.9
636.926,2585.15
637.058,2591.15
637.19,2586.7
637.322,2587.25
637.454,2579.4
637.586,2579.65
637.717,2585.8
637.849,2577.6
637.981,2582.15
638.113,2587.95
638.245,2580.15
638.377,2584.45
638.509,2580.3
638.641,2593.0
638.773,2590.65
638.904,2590.55
639.036,2591.05
639.168,2592.3
639.3,2589.5
639.432,2588.4
639.564,2581.3
639.695,2593.1
639.827,2597.2
639.959,2591.85
640.091,2595.85
640.223,2589.75
640.355,2608.55
640.486,2590.1
640.618,2588.75
640.75,2592.55
640.882,2597.45
641.014,2601.85
641.146,2599.55
641.277,2608.4
641.409,2611.45
641.541,2603.5
641.673,2607.05
641.805,2593.5
641.936,2610.2
642.068,2605.55
642.2,2597.6
642.332,2599.35
642.464,2600.15
642.595,2601.1
642.727,2605.8
642.859,2600.55
642.991,2598.45
643.122,2599.1
643.254,2586.25
643.386,2597.3
643.518,2576.4
643.649,2581.5
643.781,2583.5
643.913,2570.45
644.045,2583.0
644.176,2572.5
644.308,2591.75
644.44,2584.9
644.572,2577.05
644.703,2565.0
644.835,2572.85
644.967,2571.5
645.099,2561.1
645.23,2576.5
645.362,2570.0
645.494,2577.75
645.625,2569.4
645.757,2581.95
645.889,2575.2
646.021,2580.7
646.152,2581.0
646.284,2567.15
646.416,2577.45
646.547,2587.85
646.679,2582.2
646.811,2581.85
646.942,2578.75
647.074,2587.2
647.206,2574.4
647.337,2567.05
647.469,2591.0
647.601,2580.45
647.732,2577.75
647.864,2578.3
647.996,2582.0
648.127,2575.45
648.259,2578.15
648.391,2574.65
648.522,2569.15
648.654,2574.45
648.786,2567.0
648.917,2570.55
649.049,2562.5
649.181,2569.9
649.312,2564.45
649.444,2555.35
649.576,2554.85
649.707,2567.4
649.839,2560.95
649.971,2557.8
650.102,2552.25
650.234,2553.5
650.365,2547.65
650.497,2550.0
650.629,2554.55
650.76,2546.95
650.892,2552.95
651.023,2538.3
651.155,2554.05
651.287,2547.15
651.418,2558.5
651.55,2553.85
651.682,2552.7
651.813,2564.95
651.945,2547.55
652.076,2551.1
652.208,2553.65
652.339,2557.75
652.471,2546.05
652.603,2554.15
652.734,2542.9
652.866,2567.4
652.997,2551.0
653.129,2556.35
653.261,2557.9
653.392,2565.15
653.524,2553.05
653.655,2558.05
653.787,2544.4
653.918,2532.7
654.05,2544.6
654.181,2552.95
654.313,2566.4
654.445,2548.55
654.576,2542.8
654.708,2533.35
654.839,2544.9
654.971,2528.55
655.102,2541.0
655.234,2529.25
655.365,2527.3
655.497,2528.0
655.628,2554.45
655.76,2538.3
655.892,2536.35
656.023,2527.55
656.155,2536.0
656.286,2526.1
656.418,2513.0
656.549,2528.9
656.681,2523.15
656.812,2539.95
656.944,2528.75
657.075,2534.15
657.207,2530.0
657.338,2544.75
657.47,2535.25
657.601,2531.0
657.733,2540.65
657.864,2536.2
657.996,2541.35
658.127,2525.95
658.259,2512.6
658.39,2527.05
658.522,2535.9
658.653,2532.6
658.785,2534.3
658.916,2523.85
659.048,2519.55
659.179,2530.35
659.311,2528.05
659.442,2525.3
659.574,2531.75
659.705,2525.9
659.836,2522.4
659.968,2525.55
660.099,2525.7
660.231,2504.5
660.362,2510.7
660.494,2507.65
660.625,2518.15
660.757,2526.2
660.888,2505.65
661.02,2489.35
661.151,2482.65
661.283,2494.1
661.414,2493.0
661.545,2487.05
661.677,2477.25
661.808,2487.55
661.94,2484.9
662.071,2479.15
662.203,2469.1
662.334,2473.85
662.466,2481.8
662.597,2465.15
662.728,2491.55
662.86,2472.45
662.991,2465.15
663.123,2476.1
