nm,Intensity
526.486,828.8
526.622,829.5
526.759,829.5
526.896,829.9
527.033,830.3
527.169,829.3
527.306,829.4
527.443,830.1
527.579,828.8
527.716,829.0
527.853,829.3
527.989,828.5
528.126,830.0
528.263,829.6
528.399,829.4
528.536,828.7
528.672,829.9
528.809,827.8
528.946,829.7
529.082,830.1
529.219,828.1
529.355,829.9
529.492,829.2
529.628,829.4
529.765,828.8
529.901,829.8
530.038,829.8
530.174,830.3
530.311,830.0
530.447,829.5
530.584,830.4
530.72,829.4
530.857,828.7
530.993,828.5
531.13,828.4
531.266,829.8
531.403,827.8
531.539,827.7
531.676,831.2
531.812,829.8
531.948,832.3
532.085,855.3
532.221,875.7
532.358,845.7
532.494,831.0
532.63,829.5
532.767,829.9
532.903,828.1
533.039,830.2
533.176,828.8
533.312,829.5
533.448,829.9
533.585,833.4
533.721,860.0
533.857,1019.9
533.993,1356.5
534.13,1572.6
534.266,1590.8
534.402,1536.3
534.539,1466.0
534.675,1436.4
534.811,1371.8
534.947,1296.4
535.083,1229.7
535.22,1173.1
535.356,1119.3
535.492,1079.8
535.628,1044.5
535.764,1027.5
535.901,993.1
536.037,983.3
536.173,968.6
536.309,955.6
536.445,949.1
536.581,940.6
536.717,940.6
536.854,939.1
536.99,936.0
537.126,934.1
537.262,929.2
537.398,924.6
537.534,921.6
537.67,924.2
537.806,919.3
537.942,926.1
538.078,926.8
538.214,929.9
538.35,934.1
538.486,933.7
538.622,935.5
538.758,929.0
538.894,919.7
539.03,910.8
539.166,903.3
539.302,893.4
539.438,891.4
539.574,887.3
539.71,886.1
539.846,885.2
539.982,884.0
540.118,883.0
540.254,881.7
540.39,879.4
540.526,879.4
540.662,878.5
540.798,875.3
540.933,876.4
541.069,875.8
541.205,876.3
541.341,877.4
541.477,875.5
541.613,878.1
541.749,876.2
541.884,876.7
542.02,874.0
542.156,876.3
542.292,873.6
542.428,872.2
542.563,875.4
542.699,872.0
542.835,873.8
542.971,877.7
543.106,874.9
543.242,876.4
543.378,876.9
543.514,878.5
543.649,878.5
543.785,878.9
543.921,878.3
544.057,880.1
544.192,876.9
544.328,876.5
544.464,875.1
544.599,870.5
544.735,873.6
544.871,869.2
545.006,868.3
545.142,869.0
545.278,866.8
545.413,870.2
545.549,866.2
545.684,865.6
545.82,865.6
545.956,867.3
546.091,866.0
546.227,867.4
546.362,865.1
546.498,864.6
546.634,864.4
546.769,861.9
546.905,865.1
547.04,863.8
547.176,865.7
547.311,864.6
547.447,866.2
547.582,866.7
547.718,865.7
547.853,870.8
547.989,866.0
548.124,864.2
548.26,866.4
548.395,867.3
548.531,866.4
548.666,865.7
548.802,865.3
548.937,866.2
549.072,861.5
549.208,864.6
549.343,864.9
549.479,862.8
549.614,862.1
549.75,861.7
549.885,864.3
550.02,867.4
550.156,870.0
550.291,895.3
550.426,904.7
550.562,878.1
550.697,862.8
550.832,864.5
550.968,863.1
551.103,861.0
551.238,861.8
551.374,859.6
551.509,861.9
551.644,861.6
551.78,861.1
551.915,861.1
552.05,859.2
552.185,858.7
552.321,857.0
552.456,859.0
552.591,859.2
552.726,861.2
552.862,858.6
552.997,860.5
553.132,858.4
553.267,858.7
553.403,856.0
553.538,856.4
553.673,858.3
553.808,861.8
553.943,864.5
554.078,868.5
554.214,872.4
554.349,872.5
554.484,874.0
554.619,874.9
554.754,878.6
554.889,873.1
555.024,873.5
555.16,873.4
555.295,876.8
555.43,880.6
555.565,892.6
555.7,896.1
555.835,890.0
555.97,880.9
556.105,874.6
556.24,867.4
556.375,863.8
556.51,863.7
556.645,862.8
556.78,863.3
556.915,865.3
557.05,867.2
557.185,869.7
557.32,866.0
557.455,864.7
557.59,864.1
557.725,860.1
557.86,862.7
557.995,860.7
558.13,861.4
558.265,862.7
558.4,862.3
558.535,860.4
558.67,862.6
558.805,861.2
558.94,863.4
559.075,869.6
559.21,866.2
559.345,865.8
559.479,864.0
559.614,859.7
559.749,859.4
559.884,859.7
560.019,861.1
560.154,861.3
560.289,860.5
560.424,861.8
560.558,860.1
560.693,860.1
560.828,863.2
560.963,861.8
561.098,864.6
561.232,864.5
561.367,865.7
561.502,871.5
561.637,882.3
561.772,900.6
561.906,938.1
562.041,1105.7
562.176,1257.0
562.311,1066.3
562.445,913.3
562.58,880.7
562.715,876.1
562.85,896.0
562.984,938.1
563.119,965.9
563.254,940.6
563.388,902.9
563.523,886.2
563.658,878.8
563.792,872.0
563.927,873.1
564.062,873.8
564.196,877.8
564.331,877.4
564.466,879.5
564.6,875.5
564.735,874.5
564.87,874.0
565.004,872.3
565.139,876.0
565.273,875.0
565.408,871.8
565.543,867.9
565.677,867.4
565.812,865.3
565.946,866.7
566.081,864.4
566.215,863.9
566.35,863.8
566.485,867.8
566.619,869.9
566.754,871.6
566.888,889.1
567.023,902.9
567.157,898.3
567.292,888.9
567.426,884.1
567.561,882.7
567.695,893.5
567.83,909.6
567.964,922.8
568.099,916.2
568.233,919.5
568.368,927.1
568.502,931.3
568.636,919.1
568.771,909.5
568.905,895.4
569.04,887.2
569.174,883.3
569.309,880.3
569.443,878.5
569.577,874.9
569.712,875.3
569.846,878.0
569.98,874.5
570.115,872.5
570.249,875.2
570.384,876.0
570.518,872.6
570.652,875.8
570.787,874.8
570.921,874.1
571.055,876.3
571.19,876.0
571.324,878.5
571.458,878.9
571.592,879.8
571.727,879.9
571.861,880.3
571.995,881.6
572.13,883.7
572.264,886.1
572.398,888.3
572.532,892.7
572.667,887.5
572.801,892.8
572.935,887.0
573.069,883.5
573.204,882.9
573.338,881.8
573.472,881.2
573.606,879.3
573.74,882.0
573.875,881.5
574.009,881.7
574.143,882.1
574.277,878.4
574.411,877.9
574.545,876.8
574.68,872.6
574.814,872.6
574.948,874.3
575.082,872.2
575.216,872.7
575.35,874.5
575.484,870.7
575.619,875.3
575.753,871.1
575.887,873.1
576.021,874.7
576.155,874.4
576.289,883.9
576.423,891.2
576.557,895.8
576.691,899.4
576.825,895.3
576.959,888.8
577.093,877.6
577.227,874.0
577.361,875.0
577.495,874.8
577.629,875.9
577.763,874.3
577.897,875.9
578.031,874.4
578.165,877.4
578.299,874.5
578.433,874.8
578.567,874.9
578.701,877.3
578.835,874.9
578.969,874.6
579.103,875.0
579.237,872.5
579.371,872.7
579.505,872.7
579.639,873.2
579.773,874.3
579.907,874.0
580.041,874.8
580.175,875.6
580.309,874.8
580.442,876.3
580.576,878.0
580.71,880.9
580.844,880.7
580.978,889.5
581.112,909.3
581.246,907.6
581.38,894.5
581.513,902.1
581.647,930.3
581.781,978.5
581.915,969.1
582.049,918.2
582.183,893.7
582.316,882.3
582.45,877.1
582.584,879.9
582.718,878.1
582.852,873.2
582.985,874.3
583.119,874.8
583.253,875.3
583.387,874.2
583.52,874.0
583.654,873.4
583.788,870.8
583.922,872.9
584.055,871.9
584.189,873.0
584.323,873.1
584.456,876.9
584.59,872.7
584.724,870.1
584.858,873.4
584.991,871.2
585.125,871.6
585.259,872.1
585.392,871.5
585.526,870.8
585.66,872.0
585.793,873.9
585.927,870.0
586.061,869.8
586.194,867.4
586.328,871.6
586.462,871.6
586.595,870.8
586.729,872.3
586.862,870.8
586.996,871.5
587.13,872.3
587.263,870.8
587.397,869.7
587.53,870.3
587.664,869.3
587.797,871.1
587.931,869.8
588.065,871.5
588.198,869.5
588.332,867.8
588.465,870.9
588.599,871.3
588.732,869.6
588.866,866.8
588.999,872.6
589.133,872.8
589.266,868.0
589.4,870.1
589.533,871.4
589.667,868.6
589.8,869.9
589.934,868.3
590.067,869.0
590.201,868.6
590.334,870.3
590.468,870.1
590.601,868.4
590.735,868.1
590.868,868.6
591.001,866.5
591.135,871.5
591.268,869.1
591.402,867.5
591.535,868.3
591.669,868.0
591.802,867.9
591.935,868.8
592.069,866.1
592.202,869.9
592.335,869.5
592.469,871.9
592.602,869.5
592.736,866.3
592.869,870.9
593.002,870.1
593.136,869.7
593.269,868.8
593.402,868.3
593.536,869.0
593.669,867.6
593.802,865.9
593.936,866.6
594.069,868.7
594.202,869.0
594.336,866.4
594.469,866.3
594.602,866.9
594.735,867.6
594.869,867.3
595.002,866.5
595.135,868.0
595.268,866.9
595.402,868.3
595.535,867.0
595.668,867.8
595.801,866.9
595.935,870.3
596.068,867.2
596.201,867.8
596.334,868.1
596.468,867.8
596.601,865.5
596.734,867.4
596.867,867.3
597.0,868.2
597.133,869.4
597.267,867.6
597.4,866.8
597.533,869.9
597.666,867.2
597.799,869.5
597.932,868.8
598.066,866.9
598.199,869.1
598.332,867.1
598.465,868.7
598.598,867.2
598.731,866.5
598.864,869.8
598.998,871.1
599.131,868.4
599.264,868.7
599.397,868.7
599.53,869.7
599.663,867.8
599.796,866.9
599.929,868.3
600.062,867.9
600.195,870.8
600.328,868.3
600.461,867.5
600.594,868.8
600.727,866.3
600.86,868.6
600.994,867.1
601.127,868.7
601.26,869.2
601.393,868.1
601.526,868.8
601.659,866.1
601.792,868.6
601.925,868.0
602.058,868.4
602.191,868.8
602.324,868.7
602.457,867.8
602.589,867.0
602.722,869.5
602.855,867.4
602.988,870.3
603.121,869.6
603.254,869.5
603.387,872.1
603.52,869.1
603.653,869.2
603.786,871.1
603.919,870.7
604.052,869.3
604.185,869.0
604.318,869.4
604.451,872.2
604.583,868.9
604.716,870.3
604.849,869.3
604.982,867.6
605.115,869.6
605.248,870.7
605.381,867.6
605.514,868.4
605.646,866.2
605.779,868.4
605.912,868.8
606.045,874.1
606.178,868.4
606.311,871.5
606.443,869.0
606.576,867.5
606.709,869.6
606.842,869.4
606.975,867.7
607.107,869.2
607.24,869.7
607.373,868.6
607.506,869.1
607.639,869.9
607.771,871.1
607.904,868.6
608.037,870.5
608.17,869.6
608.302,869.5
608.435,870.7
608.568,869.0
608.701,871.5
608.833,869.9
608.966,871.1
609.099,872.5
609.232,873.8
609.364,871.0
609.497,869.6
609.63,870.7
609.762,870.5
609.895,871.7
610.028,876.9
610.161,871.4
610.293,875.2
610.426,873.2
610.559,869.6
610.691,873.7
610.824,870.8
610.957,873.4
611.089,874.1
611.222,872.4
611.355,872.1
611.487,875.5
611.62,873.4
611.752,876.5
611.885,875.4
612.018,879.1
612.15,873.5
612.283,874.4
612.416,874.8
612.548,876.3
612.681,875.4
612.813,878.8
612.946,876.3
613.078,880.5
613.211,876.1
613.344,877.6
613.476,878.9
613.609,878.0
613.741,877.0
613.874,879.7
614.006,877.8
614.139,879.1
614.272,880.3
614.404,878.1
614.537,880.4
614.669,876.9
614.802,880.2
614.934,882.3
615.067,879.0
615.199,880.0
615.332,880.4
615.464,881.8
615.597,880.1
615.729,879.7
615.862,882.0
615.994,880.2
616.127,879.4
616.259,880.4
616.392,883.9
616.524,881.4
616.657,884.0
616.789,885.8
616.922,882.3
617.054,887.5
617.186,881.5
617.319,886.1
617.451,883.8
617.584,885.2
617.716,886.0
617.849,887.2
617.981,884.1
618.113,888.1
618.246,883.8
618.378,888.8
618.511,884.6
618.643,886.4
618.775,887.0
618.908,890.5
619.04,885.1
619.173,888.0
619.305,885.2
619.437,889.0
619.57,884.2
619.702,882.4
619.834,886.2
619.967,888.0
620.099,885.7
620.231,885.9
620.364,884.2
620.496,884.9
620.628,888.1
620.761,887.3
620.893,886.7
621.025,886.3
621.158,889.8
621.29,888.4
621.422,887.1
621.555,889.0
621.687,888.0
621.819,888.2
621.952,891.5
622.084,886.9
622.216,888.7
622.348,890.5
622.481,889.3
622.613,888.9
622.745,891.2
622.878,889.0
623.01,887.7
623.142,888.1
623.274,884.3
623.407,888.5
623.539,889.9
623.671,889.2
623.803,891.1
623.935,891.9
624.068,891.6
624.2,891.2
624.332,892.2
624.464,889.0
624.597,891.4
624.729,891.5
624.861,889.0
624.993,891.6
625.125,892.1
625.258,892.6
625.39,891.4
625.522,892.8
625.654,891.2
625.786,894.2
625.918,895.7
626.051,896.3
626.183,893.3
626.315,894.7
626.447,898.2
626.579,893.6
626.711,900.3
626.844,904.2
626.976,910.6
627.108,926.5
627.24,935.5
627.372,943.3
627.504,940.4
627.636,940.2
627.768,935.7
627.901,931.1
628.033,927.8
628.165,924.6
628.297,927.5
628.429,932.5
628.561,937.9
628.693,945.9
628.825,955.4
628.957,964.2
629.089,970.7
629.221,988.6
629.354,990.8
629.486,996.7
629.618,991.4
629.75,994.6
629.882,983.7
630.014,976.5
630.146,974.0
630.278,968.2
630.41,962.4
630.542,959.6
630.674,954.0
630.806,942.9
630.938,944.5
631.07,932.0
631.202,927.5
631.334,923.6
631.466,923.0
631.598,918.5
631.73,916.0
631.862,920.7
631.994,917.1
632.126,918.0
632.258,924.1
632.39,930.6
632.522,926.7
632.654,918.0
632.786,911.6
632.918,909.5
633.05,910.6
633.182,920.6
633.314,927.9
633.446,930.2
633.578,920.1
633.71,914.7
633.842,917.0
633.974,916.3
634.106,927.7
634.237,935.0
634.369,952.5
634.501,969.8
634.633,993.6
634.765,1008.6
634.897,1020.1
635.029,1023.7
635.161,1061.7
635.293,1126.2
635.425,1168.1
635.557,1169.6
635.689,1161.3
635.82,1138.8
635.952,1099.6
636.084,1054.4
636.216,1008.1
636.348,975.4
636.48,959.4
636.612,945.7
636.744,930.6
636.875,926.8
637.007,919.5
637.139,916.1
637.271,915.5
637.403,916.4
637.535,912.3
637.667,916.7
637.798,907.6
637.93,907.0
638.062,906.9
638.194,905.1
638.326,908.5
638.458,902.3
638.589,906.9
638.721,909.2
638.853,906.3
638.985,905.7
639.117,903.9
639.248,906.0
639.38,906.0
639.512,906.6
639.644,909.2
639.776,910.5
639.907,913.8
640.039,913.0
640.171,908.9
640.303,906.3
640.435,902.8
640.566,902.1
640.698,905.9
640.83,904.2
640.962,906.2
641.093,904.8
641.225,908.0
641.357,909.8
641.489,912.9
641.62,909.3
641.752,912.5
641.884,908.4
642.016,904.0
642.147,905.2
642.279,906.9
642.411,905.0
642.543,904.7
642.674,901.9
642.806,903.6
642.938,903.0
643.069,904.2
643.201,902.5
643.333,903.3
643.465,903.3
643.596,902.3
643.728,904.5
643.86,904.9
643.991,905.9
644.123,903.5
644.255,903.7
644.386,903.9
644.518,909.4
644.65,900.4
644.781,904.1
644.913,902.6
645.045,906.9
645.176,905.8
645.308,903.0
645.44,903.0
645.571,907.0
645.703,903.6
645.835,900.6
645.966,902.6
646.098,905.1
646.23,900.2
646.361,906.5
646.493,904.2
646.625,906.0
646.756,902.9
646.888,904.5
647.019,905.1
647.151,905.2
647.283,905.4
647.414,905.5
647.546,905.6
647.678,910.4
647.809,902.2
647.941,905.3
648.072,906.3
648.204,907.2
648.336,905.8
648.467,906.9
648.599,910.0
648.73,906.1
648.862,908.7
648.993,909.6
649.125,905.7
649.257,902.3
649.388,903.7
649.52,908.7
649.651,907.5
649.783,907.9
649.914,907.6
650.046,908.7
650.178,907.1
650.309,912.2
650.441,907.2
650.572,900.6
650.704,904.8
650.835,904.9
650.967,905.2
651.098,905.5
651.23,905.6
651.361,908.2
651.493,906.8
651.625,907.8
651.756,907.2
651.888,908.8
652.019,909.5
652.151,908.0
652.282,909.8
652.414,911.9
652.545,908.4
652.677,905.3
652.808,908.0
652.94,911.2
653.071,908.5
653.203,907.3
653.334,907.4
653.466,907.7
653.597,910.3
653.729,908.5
653.86,907.1
653.992,909.6
654.123,908.3
654.255,910.2
654.386,910.3
654.518,910.3
654.649,912.1
654.78,910.9
654.912,908.3
655.043,909.3
655.175,909.6
655.306,907.8
655.438,908.9
655.569,909.9
655.701,908.7
655.832,910.6
655.964,910.4
656.095,909.1
656.226,912.2
656.358,909.4
656.489,909.5
656.621,910.4
656.752,909.6
656.884,913.2
657.015,913.3
657.146,911.9
657.278,916.0
657.409,913.6
657.541,915.2
657.672,911.4
657.804,911.4
657.935,914.7
658.066,910.0
658.198,908.7
658.329,911.8
658.461,913.0
658.592,912.5
658.723,910.8
658.855,915.2
658.986,914.8
659.118,917.6
659.249,915.8
659.38,917.4
659.512,915.5
659.643,915.6
659.774,916.2
659.906,915.1
660.037,918.5
660.169,916.8
660.3,916.2
660.431,915.0
660.563,912.7
660.694,914.8
660.825,915.9
660.957,911.6
661.088,912.6
661.22,914.3
661.351,916.0
661.482,914.6
661.614,915.8
661.745,915.0
661.876,912.9
662.008,910.7
662.139,915.6
662.27,911.7
662.402,911.0
662.533,914.5
662.664,912.4
662.796,914.2
662.927,912.1
663.058,912.7
