nm,Intensity
526.505,828.6
526.642,828.66
526.778,828.6
526.915,827.94
527.052,828.5
527.188,828.14
527.325,828.26
527.462,828.8
527.598,828.74
527.735,828.82
527.872,827.96
528.008,828.16
528.145,828.2
528.282,828.26
528.418,828.18
528.555,828.42
528.691,828.44
528.828,828.78
528.965,827.98
529.101,828.38
529.238,828.76
529.374,828.02
529.511,828.56
529.647,828.18
529.784,827.8
529.92,828.74
530.057,827.96
530.193,828.44
530.33,828.42
530.466,828.32
530.603,828.64
530.739,828.08
530.876,828.28
531.012,828.34
531.149,828.56
531.285,828.28
531.421,828.04
531.558,827.98
531.694,828.52
531.831,829.04
531.967,831.54
532.103,857.66
532.24,874.02
532.376,840.1
532.513,829.58
532.649,828.18
532.785,828.42
532.922,828.98
533.058,827.8
533.194,827.76
533.331,828.7
533.467,828.68
533.603,830.2
533.739,839.16
533.876,889.78
534.012,982.9
534.148,1025.32
534.284,1028.08
534.421,1014.16
534.557,1006.4
534.693,1000.58
534.829,993.18
534.966,983.64
535.102,973.0
535.238,969.56
535.374,966.72
535.51,963.7
535.647,963.74
535.783,962.9
535.919,958.0
536.055,958.58
536.191,955.04
536.327,953.46
536.464,953.94
536.6,951.06
536.736,950.98
536.872,948.98
537.008,949.54
537.144,950.04
537.28,951.66
537.416,951.06
537.552,953.58
537.688,954.9
537.824,954.14
537.961,953.7
538.097,954.48
538.233,956.26
538.369,955.8
538.505,955.44
538.641,952.16
538.777,952.62
538.913,950.54
539.049,948.0
539.185,948.88
539.321,947.42
539.457,946.3
539.592,943.9
539.728,944.58
539.864,944.2
540.0,943.42
540.136,942.66
540.272,943.0
540.408,943.18
540.544,941.66
540.68,943.64
540.816,942.8
540.952,942.96
541.087,943.3
541.223,941.68
541.359,943.5
541.495,944.16
541.631,945.58
541.767,944.08
541.903,943.74
542.038,946.54
542.174,946.52
542.31,944.52
542.446,945.6
542.582,946.46
542.717,946.44
542.853,947.3
542.989,946.64
543.125,949.74
543.26,948.46
543.396,948.66
543.532,947.38
543.668,947.04
543.803,948.78
543.939,949.36
544.075,951.82
544.21,949.02
544.346,950.54
544.482,949.58
544.617,952.1
544.753,955.58
544.889,953.12
545.024,953.86
545.16,955.62
545.296,956.06
545.431,955.92
545.567,955.56
545.703,957.3
545.838,953.48
545.974,953.46
546.109,955.3
546.245,956.26
546.381,956.22
546.516,958.68
546.652,960.46
546.787,958.58
546.923,958.26
547.058,954.4
547.194,953.82
547.329,956.42
547.465,955.54
547.6,957.02
547.736,955.82
547.871,957.86
548.007,955.8
548.142,956.58
548.278,956.7
548.413,957.18
548.549,956.24
548.684,959.16
548.82,959.06
548.955,957.6
549.091,959.72
549.226,961.24
549.361,960.94
549.497,961.96
549.632,961.72
549.768,963.1
549.903,964.52
550.038,964.48
550.174,965.0
550.309,966.36
550.444,965.78
550.58,961.62
550.715,964.88
550.85,964.12
550.986,962.28
551.121,964.5
551.256,961.28
551.392,963.02
551.527,964.92
551.662,965.26
551.798,965.4
551.933,965.86
552.068,965.4
552.203,965.0
552.339,965.5
552.474,965.6
552.609,966.56
552.744,966.44
552.88,968.26
553.015,966.3
553.15,970.7
553.285,973.0
553.42,972.58
553.556,970.5
553.691,972.58
553.826,974.52
553.961,975.26
554.096,976.92
554.231,976.46
554.367,976.74
554.502,975.86
554.637,976.22
554.772,977.1
554.907,979.9
555.042,977.76
555.177,978.18
555.312,980.44
555.448,980.2
555.583,980.2
555.718,978.38
555.853,979.7
555.988,980.68
556.123,982.96
556.258,983.38
556.393,985.08
556.528,983.0
556.663,985.68
556.798,986.76
556.933,988.14
557.068,988.76
557.203,990.0
557.338,991.92
557.473,993.78
557.608,993.28
557.743,994.8
557.878,997.2
558.013,994.68
558.148,992.74
558.283,992.7
558.418,992.74
558.553,993.2
558.688,993.24
558.822,993.0
558.957,988.66
559.092,991.36
559.227,992.0
559.362,989.54
559.497,989.48
559.632,989.58
559.767,992.32
559.902,990.16
560.036,991.02
560.171,990.58
560.306,987.94
560.441,991.64
560.576,992.68
560.711,990.12
560.845,990.24
560.98,991.88
561.115,990.56
561.25,990.78
561.385,990.04
561.519,992.52
561.654,993.58
561.789,991.74
561.924,998.32
562.058,1001.08
562.193,1010.0
562.328,1026.76
562.463,1019.74
562.597,1006.14
562.732,1003.58
562.867,1003.24
563.001,1003.64
563.136,1007.14
563.271,1009.42
563.406,1008.56
563.54,1010.48
563.675,1015.16
563.81,1017.68
563.944,1032.06
564.079,1047.04
564.213,1043.12
564.348,1035.44
564.483,1033.5
564.617,1036.54
564.752,1034.26
564.887,1035.76
565.021,1030.66
565.156,1024.38
565.29,1019.02
565.425,1017.46
565.56,1014.7
565.694,1015.38
565.829,1015.42
565.963,1023.34
566.098,1036.62
566.232,1038.0
566.367,1023.98
566.501,1016.0
566.636,1011.9
566.77,1011.48
566.905,1010.7
567.039,1009.98
567.174,1007.84
567.308,1009.46
567.443,1012.42
567.577,1008.62
567.712,1010.04
567.846,1009.38
567.981,1006.74
568.115,1007.94
568.25,1008.9
568.384,1007.0
568.518,1007.74
568.653,1009.56
568.787,1010.64
568.922,1010.82
569.056,1013.26
569.191,1012.96
569.325,1015.6
569.459,1015.1
569.594,1015.7
569.728,1016.54
569.862,1014.4
569.997,1014.04
570.131,1018.86
570.265,1017.42
570.4,1019.28
570.534,1021.82
570.668,1024.18
570.803,1027.32
570.937,1027.2
571.071,1028.94
571.206,1037.58
571.34,1044.86
571.474,1068.88
571.609,1102.58
571.743,1097.52
571.877,1083.0
572.011,1077.72
572.146,1067.88
572.28,1059.82
572.414,1051.06
572.548,1044.86
572.683,1036.98
572.817,1032.66
572.951,1035.02
573.085,1031.76
573.219,1032.84
573.354,1031.96
573.488,1032.02
573.622,1031.14
573.756,1031.34
573.89,1036.06
574.025,1036.94
574.159,1033.16
574.293,1032.16
574.427,1029.62
574.561,1028.42
574.695,1028.3
574.829,1030.6
574.964,1030.82
575.098,1032.74
575.232,1035.52
575.366,1037.94
575.5,1044.46
575.634,1056.58
575.768,1061.36
575.902,1071.3
576.036,1089.02
576.17,1120.36
576.304,1146.98
576.438,1148.46
576.573,1139.04
576.707,1129.14
576.841,1117.86
576.975,1107.52
577.109,1096.44
577.243,1084.08
577.377,1065.56
577.511,1055.74
577.645,1052.18
577.779,1049.3
577.913,1045.26
578.047,1039.82
578.181,1038.58
578.315,1041.08
578.449,1037.7
578.583,1038.18
578.716,1039.26
578.85,1037.08
578.984,1038.52
579.118,1038.08
579.252,1035.1
579.386,1037.98
579.52,1036.58
579.654,1036.62
579.788,1037.96
579.922,1036.4
580.056,1039.78
580.19,1036.64
580.323,1036.68
580.457,1037.36
580.591,1038.96
580.725,1038.76
580.859,1039.36
580.993,1038.1
581.127,1038.88
581.26,1039.56
581.394,1037.3
581.528,1040.92
581.662,1038.7
581.796,1041.34
581.929,1041.4
582.063,1042.0
582.197,1041.76
582.331,1040.36
582.465,1042.7
582.598,1041.22
582.732,1042.96
582.866,1042.78
583.0,1042.62
583.133,1044.04
583.267,1042.22
583.401,1043.94
583.535,1041.04
583.668,1044.62
583.802,1045.28
583.936,1043.64
584.07,1045.12
584.203,1044.54
584.337,1042.38
584.471,1046.22
584.604,1043.2
584.738,1046.42
584.872,1043.2
585.005,1043.94
585.139,1045.66
585.273,1046.98
585.406,1045.38
585.54,1045.36
585.674,1047.16
585.807,1049.62
585.941,1049.12
586.074,1049.58
586.208,1050.44
586.342,1047.38
586.475,1049.56
586.609,1050.74
586.742,1051.56
586.876,1051.76
587.01,1052.02
587.143,1050.8
587.277,1054.3
587.41,1053.18
587.544,1055.36
587.678,1053.46
587.811,1052.94
587.945,1053.16
588.078,1057.0
588.212,1052.22
588.345,1056.02
588.479,1052.72
588.612,1054.64
588.746,1053.44
588.879,1055.22
589.013,1053.7
589.146,1055.58
589.28,1056.68
589.413,1053.1
589.547,1053.48
589.68,1054.2
589.814,1055.46
589.947,1056.88
590.081,1057.76
590.214,1056.54
590.347,1056.7
590.481,1060.0
590.614,1058.56
590.748,1058.4
590.881,1060.34
591.015,1060.86
591.148,1061.58
591.281,1062.88
591.415,1062.42
591.548,1061.32
591.682,1062.44
591.815,1063.24
591.948,1065.2
592.082,1064.78
592.215,1065.18
592.348,1065.32
592.482,1068.44
592.615,1065.5
592.748,1068.12
592.882,1068.84
593.015,1066.6
593.148,1067.64
593.282,1068.62
593.415,1069.0
593.548,1073.52
593.682,1072.28
593.815,1073.74
593.948,1072.8
594.082,1073.28
594.215,1072.7
594.348,1074.98
594.481,1077.78
594.615,1077.88
594.748,1078.96
594.881,1077.22
595.014,1081.94
595.148,1082.42
595.281,1083.64
595.414,1085.98
595.547,1082.88
595.681,1085.98
595.814,1088.16
595.947,1089.98
596.08,1088.46
596.213,1092.7
596.347,1090.38
596.48,1090.04
596.613,1095.08
596.746,1092.32
596.879,1097.38
597.013,1099.48
597.146,1099.5
597.279,1099.94
597.412,1100.04
597.545,1101.04
597.678,1101.32
597.811,1107.64
597.945,1104.22
598.078,1105.96
598.211,1108.34
598.344,1110.7
598.477,1111.12
598.61,1111.82
598.743,1113.14
598.876,1113.78
599.01,1116.16
599.143,1114.6
599.276,1114.96
599.409,1116.84
599.542,1120.5
599.675,1118.08
599.808,1118.34
599.941,1117.78
600.074,1120.62
600.207,1121.54
600.34,1119.56
600.473,1118.06
600.606,1120.54
600.739,1121.34
600.872,1118.44
601.005,1122.2
601.138,1119.28
601.271,1121.36
601.404,1119.36
601.537,1119.4
601.67,1117.14
601.803,1119.52
601.936,1120.5
602.069,1121.58
602.202,1124.62
602.335,1119.92
602.468,1122.12
602.601,1121.96
602.734,1121.4
602.867,1121.5
603.0,1118.8
603.133,1120.76
603.266,1119.72
603.399,1118.58
603.532,1119.94
603.665,1117.82
603.798,1116.56
603.93,1120.86
604.063,1118.56
604.196,1114.78
604.329,1114.78
604.462,1113.58
604.595,1114.08
604.728,1112.44
604.861,1110.32
604.994,1108.62
605.126,1108.66
605.259,1109.88
605.392,1104.64
605.525,1104.94
605.658,1104.58
605.791,1106.02
605.924,1104.94
606.056,1100.82
606.189,1100.08
606.322,1096.78
606.455,1102.34
606.588,1098.78
606.72,1097.32
606.853,1097.48
606.986,1097.0
607.119,1097.26
607.252,1096.32
607.384,1094.84
607.517,1097.1
607.65,1098.9
607.783,1094.08
607.915,1094.38
608.048,1091.46
608.181,1096.04
608.314,1093.94
608.446,1096.06
608.579,1095.22
608.712,1093.44
608.845,1097.04
608.977,1095.42
609.11,1094.72
609.243,1091.4
609.376,1094.84
609.508,1096.32
609.641,1092.72
609.774,1092.9
609.906,1090.78
610.039,1088.8
610.172,1090.1
610.304,1089.82
610.437,1088.42
610.57,1088.5
610.702,1089.12
610.835,1087.02
610.968,1084.2
611.1,1089.98
611.233,1087.3
611.366,1086.56
611.498,1086.96
611.631,1086.86
611.764,1088.38
611.896,1085.2
612.029,1087.26
612.162,1089.28
612.294,1087.98
612.427,1087.54
612.559,1089.32
612.692,1087.68
612.825,1090.3
612.957,1087.56
613.09,1090.46
613.222,1088.58
613.355,1090.28
613.487,1089.34
613.62,1091.9
613.753,1089.04
613.885,1093.4
614.018,1089.2
614.15,1090.0
614.283,1090.02
614.415,1086.6
614.548,1090.5
614.68,1088.26
614.813,1089.18
614.945,1086.06
615.078,1087.28
615.211,1086.16
615.343,1088.44
615.476,1083.3
615.608,1088.22
615.741,1084.94
615.873,1084.6
616.006,1085.24
616.138,1085.64
616.27,1089.1
616.403,1087.04
616.535,1085.24
616.668,1087.52
616.8,1084.12
616.933,1087.22
617.065,1088.68
617.198,1091.5
617.33,1089.6
617.463,1089.44
617.595,1091.1
617.728,1089.12
617.86,1089.02
617.992,1091.68
618.125,1093.78
618.257,1091.08
618.39,1090.26
618.522,1090.12
618.654,1093.28
618.787,1091.14
618.919,1089.3
619.052,1091.14
619.184,1091.28
619.316,1092.1
619.449,1095.82
619.581,1092.46
619.714,1091.16
619.846,1091.84
619.978,1091.14
620.111,1091.16
620.243,1094.5
620.375,1090.88
620.508,1094.76
620.64,1095.78
620.772,1097.24
620.905,1098.52
621.037,1097.24
621.169,1098.88
621.302,1099.06
621.434,1100.82
621.566,1104.96
621.699,1110.3
621.831,1111.2
621.963,1111.1
622.096,1116.66
622.228,1117.6
622.36,1117.36
622.492,1119.64
622.625,1111.2
622.757,1107.46
622.889,1104.4
623.022,1100.9
623.154,1098.18
623.286,1093.02
623.418,1092.58
623.551,1090.02
623.683,1088.68
623.815,1091.18
623.947,1089.8
624.08,1091.96
624.212,1089.5
624.344,1089.68
624.476,1089.56
624.609,1091.28
624.741,1092.88
624.873,1089.24
625.005,1094.66
625.137,1094.98
625.27,1094.04
625.402,1093.7
625.534,1101.12
625.666,1100.64
625.798,1102.16
625.931,1109.18
626.063,1109.34
626.195,1115.18
626.327,1123.54
626.459,1136.0
626.592,1158.36
626.724,1193.68
626.856,1256.4
626.988,1360.94
627.12,1515.36
627.252,1680.6
627.384,1782.36
627.517,1760.0
627.649,1683.48
627.781,1608.6
627.913,1545.64
628.045,1506.62
628.177,1491.84
628.309,1514.56
628.441,1571.4
628.574,1661.2
628.706,1684.78
628.838,1643.0
628.97,1630.04
629.102,1620.42
629.234,1610.94
629.366,1597.68
629.498,1575.84
629.63,1544.1
629.762,1521.56
629.895,1498.58
630.027,1497.08
630.159,1495.56
630.291,1497.14
630.423,1493.9
630.555,1475.02
630.687,1437.3
630.819,1386.14
630.951,1331.04
631.083,1268.84
631.215,1224.9
631.347,1191.26
631.479,1169.52
631.611,1157.72
631.743,1147.12
631.875,1138.86
632.007,1128.86
632.139,1119.98
632.271,1111.56
632.403,1104.56
632.535,1099.64
632.667,1101.38
632.799,1093.34
632.931,1089.2
633.063,1086.56
633.195,1084.04
633.327,1080.68
633.459,1078.14
633.591,1076.18
633.723,1073.12
633.855,1074.86
633.987,1073.22
634.119,1070.66
634.251,1069.66
634.383,1065.1
634.515,1062.64
634.647,1065.56
634.779,1064.38
634.911,1064.6
635.043,1065.36
635.175,1060.56
635.307,1063.16
635.439,1063.68
635.571,1062.16
635.703,1062.2
635.835,1063.78
635.966,1060.88
636.098,1057.5
636.23,1057.72
636.362,1058.06
636.494,1058.7
636.626,1057.68
636.758,1056.56
636.89,1058.9
637.022,1055.72
637.154,1054.8
637.285,1056.38
637.417,1055.76
637.549,1053.38
637.681,1056.34
637.813,1053.34
637.945,1052.62
638.077,1051.7
638.209,1052.3
638.34,1053.38
638.472,1052.24
638.604,1053.32
638.736,1050.38
638.868,1050.16
639.0,1051.1
639.132,1051.78
639.263,1050.96
639.395,1050.64
639.527,1052.76
639.659,1051.2
639.791,1047.56
639.923,1049.5
640.054,1049.78
640.186,1050.74
640.318,1051.08
640.45,1047.66
640.582,1047.66
640.713,1050.7
640.845,1046.64
640.977,1050.36
641.109,1046.76
641.241,1047.98
641.372,1046.98
641.504,1049.38
641.636,1050.82
641.768,1048.1
641.9,1045.64
642.031,1047.28
642.163,1046.86
642.295,1048.38
642.427,1047.72
642.558,1044.08
642.69,1044.74
642.822,1045.82
642.954,1044.4
643.086,1042.94
643.217,1045.08
643.349,1042.26
643.481,1042.06
643.613,1042.0
643.744,1042.66
643.876,1043.02
644.008,1042.3
644.139,1042.06
644.271,1040.32
644.403,1039.58
644.535,1042.16
644.666,1039.94
644.798,1039.9
644.93,1037.04
645.062,1041.02
645.193,1039.68
645.325,1038.78
645.457,1039.86
645.588,1039.44
645.72,1040.9
645.852,1037.88
645.983,1039.26
646.115,1041.4
646.247,1041.54
646.378,1038.8
646.51,1040.72
646.642,1042.24
646.774,1040.36
646.905,1040.8
647.037,1041.04
647.169,1039.84
647.3,1040.08
647.432,1039.88
647.564,1041.68
647.695,1042.42
647.827,1042.1
647.958,1038.56
648.09,1041.22
648.222,1042.6
648.353,1036.44
648.485,1039.52
648.617,1038.4
648.748,1040.64
648.88,1041.28
649.012,1038.92
649.143,1038.96
649.275,1040.32
649.406,1037.5
649.538,1038.72
649.67,1040.32
649.801,1039.5
649.933,1036.7
650.065,1037.72
650.196,1039.7
650.328,1041.24
650.459,1038.0
650.591,1037.6
650.723,1036.06
650.854,1038.84
650.986,1036.3
651.117,1036.54
651.249,1034.66
651.381,1035.28
651.512,1037.22
651.644,1040.7
651.775,1040.22
651.907,1039.16
652.038,1037.36
652.17,1039.38
652.302,1041.66
652.433,1039.34
652.565,1037.24
652.696,1039.46
652.828,1043.72
652.959,1039.8
653.091,1037.94
653.222,1039.32
653.354,1037.52
653.486,1037.2
653.617,1041.38
653.749,1040.4
653.88,1039.84
654.012,1042.58
654.143,1039.5
654.275,1041.16
654.406,1037.42
654.538,1036.34
654.669,1039.52
654.801,1037.4
654.932,1037.54
655.064,1039.46
655.195,1036.84
655.327,1035.58
655.458,1036.36
655.59,1037.16
655.721,1036.56
655.853,1035.58
655.984,1034.64
656.116,1035.44
656.247,1033.76
656.379,1036.92
656.51,1034.58
656.642,1034.5
656.773,1035.86
656.905,1032.88
657.036,1034.3
657.168,1033.7
657.299,1033.52
657.431,1034.48
657.562,1035.08
657.694,1033.1
657.825,1032.58
657.957,1033.06
658.088,1033.1
658.22,1033.96
658.351,1032.28
658.482,1033.9
658.614,1032.58
658.745,1031.36
658.877,1031.08
659.008,1031.76
659.14,1033.26
659.271,1032.64
659.403,1032.44
659.534,1031.58
659.666,1028.76
659.797,1029.54
659.928,1030.64
660.06,1029.24
660.191,1030.94
660.323,1027.42
660.454,1027.3
660.586,1026.8
660.717,1031.64
660.848,1026.28
660.98,1026.4
661.111,1025.82
661.243,1025.12
661.374,1026.92
661.505,1022.84
661.637,1020.82
661.768,1021.5
661.9,1020.2
662.031,1021.62
662.162,1019.44
662.294,1020.38
662.425,1019.32
662.557,1018.1
662.688,1020.32
662.819,1019.12
662.951,1017.68
663.082,1019.86
