nm,Intensity
528.65,1849.35
528.734,1848.7
528.819,1849.1
528.903,1848.7
528.987,1847.65
529.071,1849.45
529.155,1849.0
529.239,1849.05
529.324,1848.95
529.408,1848.55
529.492,1849.35
529.576,1849.55
529.66,1849.25
529.745,1848.8
529.829,1848.6
529.913,1849.2
529.997,1849.2
530.081,1850.7
530.165,1849.6
530.25,1848.85
530.334,1848.75
530.418,1849.6
530.502,1849.85
530.586,1849.0
530.67,1849.85
530.754,1849.35
530.839,1849.25
530.923,1850.55
531.007,1851.6
531.091,1850.15
531.175,1850.9
531.259,1852.65
531.344,1853.75
531.428,1855.3
531.512,1858.6
531.596,1864.2
531.68,1895.9
531.764,2056.75
531.848,2681.65
531.933,3737.3
532.017,4137.95
532.101,4217.8
532.185,3343.4
532.269,2462.2
532.353,1982.65
532.437,1866.1
532.521,1855.75
532.606,1851.9
532.69,1853.75
532.774,1852.95
532.858,1853.45
532.942,1853.2
533.026,1854.95
533.11,1854.7
533.194,1855.75
533.279,1861.85
533.363,1871.5
533.447,1906.75
533.531,2002.3
533.615,2262.9
533.699,2754.0
533.783,3447.9
533.867,4039.8
533.951,4514.1
534.036,4813.7
534.12,4845.55
534.204,4754.05
534.288,4522.6
534.372,4399.05
534.456,4266.3
534.54,4158.25
534.624,4029.25
534.708,3937.45
534.792,3838.0
534.877,3760.0
534.961,3716.1
535.045,3607.35
535.129,3528.45
535.213,3442.2
535.297,3354.75
535.381,3287.7
535.465,3184.05
535.549,3107.45
535.633,3076.45
535.717,3016.35
535.801,2953.9
535.886,2867.45
535.97,2836.25
536.054,2816.35
536.138,2784.85
536.222,2773.05
536.306,2743.1
536.39,2717.75
536.474,2689.5
536.558,2665.05
536.642,2639.3
536.726,2630.15
536.81,2632.65
536.894,2625.3
536.978,2608.0
537.062,2625.35
537.146,2629.4
537.231,2631.8
537.315,2632.5
537.399,2624.95
537.483,2592.2
537.567,2585.15
537.651,2604.9
537.735,2618.4
537.819,2616.45
537.903,2630.1
537.987,2640.25
538.071,2643.35
538.155,2648.0
538.239,2638.0
538.323,2622.05
538.407,2647.7
538.491,2636.65
538.575,2623.45
538.659,2637.3
538.743,2660.95
538.827,2660.65
538.911,2649.95
538.995,2648.7
539.079,2655.9
539.163,2674.9
539.247,2688.1
539.331,2695.9
539.415,2697.7
539.499,2693.45
539.583,2693.45
539.667,2709.95
539.751,2741.35
539.835,2750.45
539.919,2723.85
540.003,2728.0
540.087,2721.9
540.171,2717.3
540.255,2699.2
540.339,2676.5
540.423,2669.95
540.507,2656.0
540.591,2659.7
540.675,2631.3
540.759,2619.75
540.843,2610.1
540.927,2623.35
541.011,2626.7
541.095,2623.0
541.179,2625.15
541.263,2607.3
541.347,2597.15
541.431,2594.25
541.515,2591.6
541.599,2581.4
541.683,2588.4
541.767,2608.85
541.851,2624.7
541.935,2623.7
542.019,2631.95
542.103,2608.25
542.187,2609.4
542.271,2628.7
542.355,2628.5
542.439,2631.05
542.523,2638.4
542.607,2643.2
542.691,2651.85
542.775,2661.7
542.859,2663.5
542.943,2659.5
543.027,2659.9
543.111,2641.05
543.195,2634.7
543.279,2663.5
543.363,2640.65
543.446,2647.7
543.53,2651.85
543.614,2647.35
543.698,2696.65
543.782,2698.15
543.866,2701.2
543.95,2715.0
544.034,2750.0
544.118,2744.1
544.202,2715.65
544.286,2716.7
544.37,2697.6
544.454,2697.7
544.538,2697.7
544.622,2699.6
544.706,2672.1
544.789,2666.45
544.873,2696.95
544.957,2693.8
545.041,2677.0
545.125,2690.25
545.209,2695.15
545.293,2718.5
545.377,2714.75
545.461,2707.1
545.545,2694.65
545.629,2704.65
545.713,2710.25
545.796,2697.85
545.88,2706.05
545.964,2748.85
546.048,2781.45
546.132,2770.5
546.216,2823.7
546.3,2859.35
546.384,2889.25
546.468,2908.25
546.552,2888.75
546.635,2848.8
546.719,2827.65
546.803,2784.4
546.887,2777.15
546.971,2756.2
547.055,2740.2
547.139,2743.15
547.223,2752.55
547.306,2750.7
547.39,2743.2
547.474,2735.45
547.558,2717.2
547.642,2727.5
547.726,2751.1
547.81,2733.6
547.894,2740.55
547.977,2742.3
548.061,2749.2
548.145,2757.4
548.229,2760.65
548.313,2735.8
548.397,2751.5
548.481,2777.6
548.564,2776.9
548.648,2761.8
548.732,2760.2
548.816,2752.0
548.9,2745.7
548.984,2762.35
549.068,2744.7
549.151,2752.05
549.235,2769.6
549.319,2777.35
549.403,2759.3
549.487,2787.4
549.571,2772.15
549.655,2756.15
549.738,2762.3
549.822,2785.9
549.906,2790.0
549.99,2825.8
550.074,2846.6
550.158,2854.5
550.241,2858.9
550.325,2888.4
550.409,2966.0
550.493,3101.8
550.577,3221.35
550.66,3260.45
550.744,3176.65
550.828,2993.8
550.912,2847.35
550.996,2799.65
551.08,2805.95
551.163,2796.05
551.247,2796.7
551.331,2805.0
551.415,2792.65
551.499,2748.05
551.582,2797.95
551.666,2805.45
551.75,2823.75
551.834,2823.15
551.918,2805.3
552.001,2832.1
552.085,2831.8
552.169,2799.15
552.253,2783.3
552.337,2776.5
552.42,2805.55
552.504,2836.35
552.588,2872.05
552.672,2924.4
552.755,2992.15
552.839,3017.0
552.923,2979.45
553.007,2901.75
553.091,2847.15
553.174,2819.85
553.258,2811.5
553.342,2818.4
553.426,2826.4
553.509,2810.8
553.593,2819.9
553.677,2818.85
553.761,2808.75
553.844,2780.75
553.928,2816.5
554.012,2836.85
554.096,2836.6
554.179,2824.3
554.263,2810.1
554.347,2818.4
554.431,2823.35
554.514,2818.2
554.598,2832.2
554.682,2812.15
554.766,2828.05
554.849,2844.9
554.933,2847.4
555.017,2870.4
555.101,2861.5
555.184,2876.15
555.268,2884.3
555.352,2916.25
555.436,2975.85
555.519,3056.05
555.603,3044.45
555.687,3070.35
555.771,3046.15
555.854,3019.5
555.938,3036.35
556.022,3042.9
556.105,3070.05
556.189,3032.25
556.273,3043.1
556.357,3076.85
556.44,3075.8
556.524,3061.2
556.608,3065.75
556.691,3057.35
556.775,3042.6
556.859,3072.3
556.943,3117.0
557.026,3148.25
557.11,3204.35
557.194,3281.1
557.277,3399.95
557.361,3490.35
557.445,3554.4
557.528,3577.95
557.612,3542.7
557.696,3480.4
557.779,3332.2
557.863,3213.75
557.947,3147.35
558.031,3112.9
558.114,3152.0
558.198,3174.3
558.282,3183.35
558.365,3160.4
558.449,3155.8
558.533,3134.1
558.616,3101.15
558.7,3087.4
558.784,3085.0
558.867,3037.7
558.951,3040.3
559.035,3034.95
559.118,2988.9
559.202,2951.0
559.286,2936.55
559.369,2944.15
559.453,2975.7
559.537,2952.45
559.62,2930.35
559.704,2954.8
559.788,2928.6
559.871,2917.5
559.955,2913.9
560.038,2943.1
560.122,2935.25
560.206,2950.65
560.289,2948.15
560.373,2941.4
560.457,2921.2
560.54,2922.45
560.624,2941.7
560.708,2955.45
560.791,2966.2
560.875,2966.2
560.958,2985.05
561.042,2974.8
561.126,2969.0
561.209,3001.1
561.293,2991.55
561.377,2994.75
561.46,2987.45
561.544,3024.0
561.627,3051.95
561.711,3066.55
561.795,3057.45
561.878,3126.05
561.962,3212.25
562.045,3394.65
562.129,3596.95
562.213,3828.35
562.296,3921.95
562.38,3845.55
562.463,3595.05
562.547,3348.1
562.631,3190.75
562.714,3148.65
562.798,3166.4
562.881,3130.95
562.965,3116.0
563.049,3134.45
563.132,3118.4
563.216,3110.8
563.299,3106.55
563.383,3120.25
563.467,3115.7
563.55,3082.3
563.634,3084.3
563.717,3091.95
563.801,3088.7
563.884,3080.6
563.968,3099.4
564.052,3126.95
564.135,3114.9
564.219,3094.85
564.302,3073.4
564.386,3091.35
564.469,3155.1
564.553,3145.75
564.636,3173.2
564.72,3170.8
564.804,3213.05
564.887,3268.8
564.971,3349.5
565.054,3343.45
565.138,3342.95
565.221,3398.35
565.305,3436.65
565.388,3492.1
565.472,3538.2
565.556,3590.25
565.639,3620.2
565.723,3617.9
565.806,3618.9
565.89,3615.55
565.973,3609.6
566.057,3513.4
566.14,3461.0
566.224,3435.75
566.307,3410.4
566.391,3387.0
566.474,3358.75
566.558,3306.05
566.641,3274.85
566.725,3260.45
566.808,3219.2
566.892,3199.85
566.975,3159.0
567.059,3225.7
567.142,3251.55
567.226,3265.05
567.309,3298.95
567.393,3343.2
567.476,3364.0
567.56,3417.35
567.643,3490.4
567.727,3497.7
567.81,3430.1
567.894,3398.05
567.977,3326.9
568.061,3290.7
568.144,3306.8
568.228,3303.55
568.311,3277.65
568.395,3281.25
568.478,3247.45
568.562,3270.5
568.645,3259.15
568.729,3266.7
568.812,3270.7
568.896,3293.85
568.979,3304.7
569.063,3279.1
569.146,3287.7
569.23,3294.55
569.313,3315.5
569.396,3321.55
569.48,3338.0
569.563,3354.0
569.647,3394.05
569.73,3406.65
569.814,3414.05
569.897,3432.05
569.981,3465.4
570.064,3474.55
570.148,3491.8
570.231,3527.6
570.314,3606.45
570.398,3683.3
570.481,3742.7
570.565,3846.05
570.648,3899.7
570.732,3921.2
570.815,4057.35
570.898,4153.95
570.982,4253.85
571.065,4328.7
571.149,4434.9
571.232,4527.25
571.316,4550.45
571.399,4501.95
571.482,4409.9
571.566,4293.5
571.649,4173.3
571.733,4051.3
571.816,4024.95
571.9,3969.8
571.983,3952.85
572.066,3876.2
572.15,3805.65
572.233,3757.8
572.317,3687.95
572.4,3637.1
572.483,3587.55
572.567,3538.8
572.65,3549.5
572.734,3510.15
572.817,3497.3
572.9,3514.25
572.984,3556.2
573.067,3545.9
573.15,3466.65
573.234,3458.9
573.317,3462.6
573.401,3500.1
573.484,3520.15
573.567,3478.25
573.651,3498.2
573.734,3542.15
573.818,3587.65
573.901,3604.85
573.984,3630.5
574.068,3603.45
574.151,3606.1
574.234,3604.4
574.318,3602.55
574.401,3572.15
574.484,3520.4
574.568,3543.85
574.651,3602.25
574.734,3523.15
574.818,3526.6
574.901,3607.15
574.985,3627.7
575.068,3670.05
575.151,3730.2
575.235,3782.4
575.318,3756.8
575.401,3734.65
575.485,3703.2
575.568,3665.65
575.651,3652.4
575.735,3631.25
575.818,3640.8
575.901,3639.75
575.985,3641.15
576.068,3701.85
576.151,3715.05
576.235,3740.15
576.318,3755.55
576.401,3770.75
576.484,3789.0
576.568,3788.05
576.651,3773.65
576.734,3802.65
576.818,3795.3
576.901,3768.25
576.984,3718.95
577.068,3733.4
577.151,3719.1
577.234,3705.05
577.318,3676.6
577.401,3666.0
577.484,3654.3
577.567,3673.9
577.651,3688.8
577.734,3625.1
577.817,3637.55
577.901,3659.95
577.984,3666.35
578.067,3633.0
578.15,3621.65
578.234,3649.05
578.317,3660.05
578.4,3647.35
578.484,3649.45
578.567,3687.8
578.65,3689.1
578.733,3635.7
578.817,3628.9
578.9,3667.9
578.983,3708.15
579.066,3679.85
579.15,3678.05
579.233,3675.6
579.316,3707.45
579.399,3709.6
579.483,3709.25
579.566,3688.0
579.649,3723.55
579.732,3746.75
579.816,3719.2
579.899,3675.05
579.982,3699.75
580.065,3777.9
580.149,3773.8
580.232,3779.45
580.315,3757.7
580.398,3744.6
580.482,3778.4
580.565,3792.1
580.648,3843.2
580.731,3872.1
580.815,3894.1
580.898,3839.35
580.981,3822.3
581.064,3865.2
581.147,3922.65
581.231,3925.45
581.314,3985.7
581.397,3992.75
581.48,4035.75
581.563,4196.35
581.647,4401.0
581.73,4713.8
581.813,5240.05
581.896,5932.25
581.979,6775.55
582.063,7441.15
582.146,7796.15
582.229,7434.65
582.312,6610.4
582.395,5625.85
582.479,4758.7
582.562,4292.15
582.645,4074.85
582.728,3941.5
582.811,3919.35
582.895,3904.95
582.978,3888.6
583.061,3912.15
583.144,3912.5
583.227,3834.9
583.31,3800.75
583.394,3804.75
583.477,3835.8
583.56,3860.55
583.643,3852.6
583.726,3884.95
583.809,3907.15
583.893,3899.8
583.976,3914.35
584.059,3884.2
584.142,3817.3
584.225,3851.95
584.308,3886.55
584.391,3920.85
584.475,3967.15
584.558,3980.65
584.641,3923.0
584.724,3931.15
584.807,3941.85
584.89,3939.15
584.973,3986.0
585.057,4010.1
585.14,4033.65
585.223,4103.2
585.306,4256.3
585.389,4536.5
585.472,4873.15
585.555,5134.25
585.638,5341.4
585.722,5748.2
585.805,6010.9
585.888,6070.2
585.971,6114.0
586.054,6001.7
586.137,5835.3
586.22,5638.4
586.303,5417.5
586.386,5132.65
586.47,4896.0
586.553,4692.8
586.636,4493.0
586.719,4295.65
586.802,4205.15
586.885,4085.75
586.968,4021.1
587.051,4005.35
587.134,3984.1
587.217,3964.3
587.3,3970.45
587.384,3944.9
587.467,3966.9
587.55,3940.25
587.633,3943.1
587.716,3966.2
587.799,3872.95
587.882,3900.0
587.965,3906.25
588.048,3891.35
588.131,3912.3
588.214,3907.4
588.297,3895.05
588.38,3945.05
588.463,3997.95
588.546,3930.7
588.63,3881.5
588.713,3897.6
588.796,3899.0
588.879,3883.75
588.962,3925.8
589.045,3870.8
589.128,3860.7
589.211,3875.6
589.294,3910.85
589.377,3908.6
589.46,3914.25
589.543,3880.45
589.626,3888.75
589.709,3869.9
589.792,3868.8
589.875,3875.2
589.958,3873.05
590.041,3845.9
590.124,3874.05
590.207,3907.95
590.29,3910.9
590.373,3869.6
590.456,3830.8
590.539,3832.65
590.622,3847.7
590.705,3880.3
590.788,3907.35
590.871,3910.8
590.954,3868.95
591.037,3859.95
591.12,3907.5
591.203,3946.65
591.286,3954.8
591.369,3888.55
591.452,3893.5
591.535,3891.7
591.618,3903.65
591.701,3865.6
591.784,3885.7
591.867,3872.1
591.95,3922.85
592.033,3910.0
592.116,3898.25
592.199,3890.25
592.282,3874.75
592.365,3901.55
592.448,3886.0
592.531,3940.75
592.614,3966.35
592.697,3913.2
592.78,3885.3
592.863,3940.7
592.946,3950.1
593.029,3931.4
593.112,3911.0
593.195,3882.2
593.278,3861.3
593.361,3809.5
593.443,3849.5
593.526,3913.8
593.609,3923.9
593.692,3936.55
593.775,3909.85
593.858,3879.25
593.941,3864.7
594.024,3913.85
594.107,3923.5
594.19,3917.5
594.273,3883.25
594.356,3898.4
594.439,3879.05
594.522,3873.25
594.604,3855.35
594.687,3905.4
594.77,3955.85
594.853,3909.3
594.936,3896.7
595.019,3925.9
595.102,3960.25
595.185,3920.5
595.268,3904.95
595.351,3906.85
595.434,3937.85
595.516,3963.0
595.599,3963.4
595.682,3948.25
595.765,3913.1
595.848,3890.7
595.931,3904.35
596.014,3891.65
596.097,3891.95
596.18,3958.35
596.262,4010.8
596.345,3981.85
596.428,3942.05
596.511,3914.85
596.594,3907.65
596.677,3894.95
596.76,3896.9
596.843,3913.85
596.925,3968.5
597.008,3985.0
597.091,3942.4
597.174,3924.45
597.257,3892.9
597.34,3921.45
597.423,3939.1
597.505,3938.7
597.588,3954.6
597.671,3920.85
597.754,3916.95
597.837,3920.15
597.92,3943.75
598.002,3978.5
598.085,3899.3
598.168,3905.1
598.251,3944.8
598.334,3940.6
598.417,3923.55
598.499,3916.0
598.582,3929.6
598.665,3918.25
598.748,3927.85
598.831,3921.55
598.914,3939.8
598.996,3934.4
599.079,3940.3
599.162,3939.2
599.245,3926.4
599.328,3937.4
599.41,3937.25
599.493,3977.85
599.576,3971.05
599.659,3946.4
599.742,3960.0
599.824,4017.35
599.907,4000.4
599.99,3938.7
600.073,3916.6
600.156,3907.8
600.238,3974.2
600.321,3981.5
600.404,3954.9
600.487,3946.95
600.57,3920.8
600.652,3915.3
600.735,3936.95
600.818,3983.5
600.901,3956.25
600.983,3932.2
601.066,3944.75
601.149,3989.5
601.232,3975.9
601.314,3986.6
601.397,3994.65
601.48,3968.0
601.563,3952.1
601.645,3954.5
601.728,4004.45
601.811,4018.0
601.894,3975.3
601.976,3961.8
602.059,3984.85
602.142,4029.45
602.225,3958.95
602.307,3966.8
602.39,3927.35
602.473,3961.85
602.556,3942.05
602.638,3917.65
602.721,3906.6
602.804,3950.45
602.887,4022.15
602.969,4072.5
603.052,4051.35
603.135,4001.3
603.217,3959.55
603.3,3987.5
603.383,3980.5
603.466,4023.3
603.548,4026.0
603.631,3941.0
603.714,3925.6
603.796,3923.65
603.879,3956.0
603.962,4040.55
604.045,4025.8
604.127,4012.15
604.21,4001.1
604.293,3977.15
604.375,3965.6
604.458,3985.3
604.541,4002.05
604.623,3998.9
604.706,3991.6
604.789,3947.3
604.871,3943.3
604.954,4000.85
605.037,4000.25
605.119,4022.05
605.202,4030.95
605.285,4043.5
605.367,4002.9
605.45,3964.6
605.533,3957.9
605.615,3974.6
605.698,4040.5
605.781,4015.85
605.863,4002.35
605.946,3993.8
606.029,3999.15
606.111,3993.05
606.194,3972.1
606.277,4000.75
606.359,4032.65
606.442,4031.95
606.524,4073.1
606.607,4048.55
606.69,4004.45
606.772,3995.1
606.855,4028.8
606.938,3984.9
607.02,3989.8
607.103,4007.75
607.185,4042.1
607.268,4034.6
607.351,4044.35
607.433,4084.7
607.516,4041.3
607.599,3986.95
607.681,4037.0
607.764,4052.65
607.846,4029.1
607.929,4005.0
608.012,3967.1
608.094,4033.55
608.177,4063.95
608.259,4034.65
608.342,4052.1
608.425,4054.7
608.507,4023.5
608.59,4034.7
608.672,4013.35
608.755,4074.3
608.837,4076.0
608.92,4000.1
609.003,4007.65
609.085,4051.8
609.168,4070.9
609.25,4052.2
609.333,4061.65
609.415,4024.45
609.498,4027.65
609.581,4006.3
609.663,4020.5
609.746,4080.05
609.828,4072.85
609.911,4081.3
609.993,4068.35
610.076,4010.5
610.158,4088.45
610.241,4104.6
610.324,4055.55
610.406,4038.45
610.489,4024.3
610.571,4030.5
610.654,4056.85
610.736,4084.0
610.819,4124.2
610.901,4092.0
610.984,4121.65
611.066,4095.75
611.149,4110.35
611.231,4067.1
611.314,4036.75
611.396,4037.3
611.479,4076.7
611.561,4100.55
611.644,4107.1
611.727,4062.85
611.809,4022.55
611.892,4066.05
611.974,4074.6
612.057,4111.15
612.139,4155.9
612.222,4108.9
612.304,4094.05
612.386,4076.6
612.469,4065.5
612.551,4043.5
612.634,4129.25
612.716,4154.45
612.799,4105.05
612.881,4087.9
612.964,4108.3
613.046,4089.25
613.129,4078.65
613.211,4108.85
613.294,4103.15
613.376,4126.25
613.459,4089.5
613.541,4087.3
613.624,4079.65
613.706,4085.8
613.789,4154.95
613.871,4128.8
613.953,4103.8
614.036,4122.25
614.118,4132.8
614.201,4146.55
614.283,4148.45
614.366,4144.7
614.448,4116.1
614.531,4116.7
614.613,4164.55
614.695,4138.55
614.778,4104.2
614.86,4119.6
614.943,4160.7
615.025,4164.1
615.108,4168.25
615.19,4149.4
615.272,4224.05
615.355,4174.95
615.437,4157.8
615.52,4126.6
615.602,4091.85
615.684,4129.2
615.767,4150.7
615.849,4160.45
615.932,4172.3
616.014,4188.45
616.097,4135.1
616.179,4124.75
616.261,4142.8
616.344,4168.45
616.426,4198.3
616.508,4125.65
616.591,4162.65
616.673,4228.95
616.756,4246.05
616.838,4213.15
616.92,4136.1
617.003,4169.1
617.085,4226.25
617.168,4210.8
617.25,4185.15
617.332,4181.15
617.415,4189.05
617.497,4204.6
617.579,4199.7
617.662,4207.35
617.744,4213.3
617.826,4230.4
617.909,4267.1
617.991,4232.1
618.073,4273.2
618.156,4307.25
618.238,4288.15
618.32,4262.1
618.403,4256.4
618.485,4240.85
618.567,4206.75
618.65,4235.95
618.732,4266.9
618.814,4246.05
618.897,4245.05
618.979,4200.3
619.061,4217.7
619.144,4283.75
619.226,4265.1
619.308,4263.65
619.391,4255.6
619.473,4236.55
619.555,4241.5
619.638,4192.45
619.72,4206.85
619.802,4193.25
619.885,4281.2
619.967,4294.9
620.049,4250.4
620.131,4220.65
620.214,4211.6
620.296,4284.85
620.378,4349.8
620.461,4280.35
620.543,4243.6
620.625,4227.1
620.707,4222.1
620.79,4255.7
620.872,4259.75
620.954,4220.25
621.037,4235.3
621.119,4237.85
621.201,4264.05
621.283,4246.3
621.366,4254.45
621.448,4263.45
621.53,4285.65
621.612,4228.35
621.695,4242.2
621.777,4281.15
621.859,4258.45
621.941,4252.2
622.024,4251.8
622.106,4242.8
622.188,4289.2
622.27,4268.05
622.353,4306.35
622.435,4221.6
622.517,4254.25
622.599,4269.0
622.682,4318.45
622.764,4291.85
622.846,4313.55
622.928,4352.4
623.01,4282.4
623.093,4249.55
623.175,4302.2
623.257,4309.1
623.339,4346.85
623.422,4349.45
623.504,4358.3
623.586,4313.3
623.668,4268.6
623.75,4261.3
623.833,4311.5
623.915,4297.85
623.997,4326.5
624.079,4354.45
624.161,4340.0
624.244,4328.0
624.326,4353.5
624.408,4361.9
624.49,4351.0
624.572,4302.0
624.654,4268.1
624.737,4330.4
624.819,4390.0
624.901,4360.1
624.983,4392.55
625.065,4454.1
625.147,4406.75
625.23,4376.95
625.312,4339.25
625.394,4327.9
625.476,4424.25
625.558,4367.9
625.64,4331.95
625.723,4323.35
625.805,4300.75
625.887,4320.05
625.969,4349.0
626.051,4364.65
626.133,4390.75
626.215,4354.6
626.298,4308.1
626.38,4335.55
626.462,4386.4
626.544,4387.8
626.626,4305.55
626.708,4292.75
626.79,4359.45
626.872,4406.0
626.955,4417.15
627.037,4324.4
627.119,4338.45
627.201,4348.2
627.283,4377.8
627.365,4429.75
627.447,4425.55
627.529,4358.6
627.611,4369.45
627.693,4349.65
627.776,4371.65
627.858,4468.05
627.94,4510.45
628.022,4439.25
628.104,4398.5
628.186,4452.25
628.268,4532.95
628.35,4546.95
628.432,4564.0
628.514,4555.3
628.596,4547.2
628.678,4588.45
628.761,4556.5
628.843,4603.0
628.925,4594.9
629.007,4565.7
629.089,4601.5
629.171,4659.85
629.253,4638.6
629.335,4564.65
629.417,4547.45
629.499,4612.75
629.581,4616.35
629.663,4675.75
629.745,4646.9
629.827,4594.3
629.909,4532.55
629.991,4524.4
630.073,4536.45
630.155,4490.5
630.237,4498.65
630.319,4571.8
630.401,4530.3
630.483,4609.4
630.565,4664.25
630.647,4693.55
630.73,4692.25
630.812,4716.65
630.894,4777.15
630.976,4801.95
631.058,4841.85
631.14,4881.95
631.222,4905.75
631.304,5098.45
631.386,5279.9
631.468,5288.2
631.55,5311.0
631.632,5376.9
631.714,5417.7
631.796,5341.1
631.877,5379.15
631.959,5410.65
632.041,5319.9
632.123,5178.0
632.205,5122.8
632.287,5103.75
632.369,5163.6
632.451,4969.2
632.533,4908.65
632.615,4948.0
632.697,4989.5
632.779,4962.1
632.861,4947.75
632.943,4858.85
633.025,4936.15
633.107,4964.05
633.189,4921.5
633.271,4914.4
633.353,4907.95
633.435,4831.25
633.517,4844.95
633.599,4884.05
633.681,4824.7
633.763,4804.7
633.844,4828.5
633.926,4854.75
634.008,4815.35
634.09,4838.55
634.172,4765.8
634.254,4592.4
634.336,4601.65
634.418,4661.1
634.5,4670.85
634.582,4695.0
634.664,4694.55
634.746,4668.7
634.827,4605.3
634.909,4582.5
634.991,4683.5
635.073,4841.7
635.155,4710.15
635.237,4676.95
635.319,4692.85
635.401,4744.6
635.483,4695.5
635.564,4731.35
635.646,4889.0
635.728,4860.75
635.81,4919.75
635.892,5019.55
635.974,5098.0
636.056,5097.5
636.138,5220.2
636.219,5321.25
636.301,5414.8
636.383,5569.95
636.465,5624.6
636.547,5602.9
636.629,5529.75
636.711,5426.25
636.792,5327.25
636.874,5217.95
636.956,5009.05
637.038,5038.65
637.12,5095.5
637.202,4979.55
637.283,4846.1
637.365,4759.3
637.447,4719.35
637.529,4809.3
637.611,4806.8
637.693,4732.4
637.774,4696.85
637.856,4693.9
637.938,4661.45
638.02,4640.45
638.102,4651.2
638.184,4682.95
638.265,4745.9
638.347,4767.55
638.429,4727.05
638.511,4641.4
638.593,4602.6
638.674,4554.15
638.756,4564.95
638.838,4651.5
638.92,4670.05
639.002,4638.1
639.083,4588.65
639.165,4592.65
639.247,4595.6
639.329,4603.5
639.41,4636.45
639.492,4687.15
639.574,4692.55
639.656,4635.8
639.737,4660.3
639.819,4683.15
639.901,4594.35
639.983,4653.2
640.065,4673.2
640.146,4611.25
640.228,4622.6
640.31,4676.7
640.392,4712.45
640.473,4591.5
640.555,4609.55
640.637,4540.2
640.719,4536.8
640.8,4626.9
640.882,4601.6
640.964,4584.8
641.045,4577.05
641.127,4617.45
641.209,4580.7
641.291,4580.95
641.372,4613.7
641.454,4688.4
641.536,4626.4
641.618,4543.4
641.699,4540.35
641.781,4527.75
641.863,4448.35
641.944,4529.15
642.026,4647.85
642.108,4772.6
642.189,4724.15
642.271,4677.65
642.353,4665.55
642.435,4698.5
642.516,4749.25
642.598,4693.0
642.68,4605.6
642.761,4656.25
642.843,4681.25
642.925,4663.8
643.006,4636.25
643.088,4594.1
643.17,4610.15
643.251,4541.0
643.333,4558.55
643.415,4694.45
643.496,4644.4
643.578,4584.85
643.66,4629.6
643.741,4667.05
643.823,4581.6
643.905,4598.05
643.986,4601.05
644.068,4622.25
644.149,4610.1
644.231,4551.7
644.313,4581.1
644.394,4628.25
644.476,4559.25
644.558,4579.95
644.639,4616.95
644.721,4599.15
644.803,4546.6
644.884,4569.8
644.966,4600.15
645.047,4611.8
645.129,4627.1
645.211,4693.95
645.292,4671.45
645.374,4642.5
645.455,4623.5
645.537,4589.3
645.619,4566.05
645.7,4558.65
645.782,4603.05
645.863,4640.25
645.945,4599.4
646.027,4531.65
646.108,4596.65
646.19,4660.1
646.271,4666.25
646.353,4616.45
646.435,4634.6
646.516,4624.9
646.598,4602.35
646.679,4570.8
646.761,4558.2
646.842,4563.85
646.924,4570.9
647.005,4587.75
647.087,4644.55
647.169,4622.2
647.25,4564.2
647.332,4563.95
647.413,4622.15
647.495,4641.15
647.576,4571.55
647.658,4563.05
647.739,4629.9
647.821,4587.6
647.902,4511.2
647.984,4531.25
648.066,4605.9
648.147,4585.5
648.229,4580.5
648.31,4578.75
648.392,4586.35
648.473,4517.05
648.555,4489.9
648.636,4486.6
648.718,4475.3
648.799,4466.35
648.881,4498.85
648.962,4562.55
649.044,4550.65
649.125,4556.95
649.207,4542.9
649.288,4535.95
649.37,4546.55
649.451,4565.35
649.533,4528.05
649.614,4578.65
649.696,4595.15
649.777,4584.25
649.859,4633.6
649.94,4570.4
650.022,4513.65
650.103,4534.25
650.184,4481.8
650.266,4520.7
650.347,4601.9
650.429,4583.75
650.51,4582.4
650.592,4467.9
650.673,4437.6
650.755,4465.55
650.836,4467.0
650.918,4414.25
650.999,4484.05
651.08,4593.35
651.162,4595.95
651.243,4510.8
651.325,4506.2
651.406,4475.3
651.488,4392.85
651.569,4390.55
651.651,4487.85
651.732,4504.75
651.813,4496.2
651.895,4491.5
651.976,4484.75
652.058,4510.8
652.139,4458.0
652.22,4374.35
652.302,4425.75
652.383,4514.15
652.465,4516.55
652.546,4495.05
652.627,4467.4
652.709,4455.75
652.79,4432.6
652.872,4398.05
652.953,4402.8
653.034,4476.45
653.116,4407.15
653.197,4360.95
653.278,4443.75
653.36,4426.8
653.441,4386.65
653.523,4353.6
653.604,4321.05
653.685,4345.6
653.767,4379.4
653.848,4390.1
653.929,4390.35
654.011,4417.25
654.092,4357.65
654.173,4366.35
654.255,4325.55
654.336,4351.6
654.418,4343.7
654.499,4347.1
654.58,4298.6
654.662,4319.0
654.743,4350.9
654.824,4370.7
654.906,4317.05
654.987,4258.3
655.068,4310.25
655.149,4291.05
655.231,4325.2
655.312,4359.95
655.393,4334.35
655.475,4325.95
655.556,4333.0
655.637,4281.95
655.719,4300.45
655.8,4285.95
655.881,4339.85
655.963,4345.7
656.044,4313.0
656.125,4293.7
656.206,4302.95
656.288,4356.5
656.369,4347.25
656.45,4286.6
656.532,4236.4
656.613,4205.15
656.694,4248.45
656.775,4307.9
656.857,4307.45
656.938,4275.95
657.019,4289.7
657.1,4263.95
657.182,4268.8
657.263,4249.45
657.344,4242.8
657.425,4285.3
657.507,4272.75
657.588,4177.85
657.669,4114.3
657.75,4172.4
657.832,4253.0
657.913,4217.45
657.994,4158.9
658.075,4186.0
658.157,4239.45
658.238,4141.45
658.319,4147.4
658.4,4168.9
658.482,4216.35
658.563,4216.0
658.644,4154.6
658.725,4091.05
658.806,4143.3
658.888,4155.55
658.969,4158.7
659.05,4152.4
659.131,4135.85
659.212,4124.85
659.294,4081.45
659.375,4108.75
659.456,4094.15
659.537,4086.6
659.618,4092.95
659.7,4099.35
659.781,4060.7
659.862,4119.3
659.943,4109.95
660.024,4055.95
660.105,4110.25
660.187,4133.75
660.268,4093.4
660.349,4127.8
660.43,4105.55
660.511,4095.25
660.592,4036.1
660.674,4087.85
660.755,4051.3
660.836,4045.15
660.917,4108.95
660.998,4058.45
661.079,4023.45
