nm,Intensity
528.65,1841.55
528.734,1842.35
528.819,1841.9
528.903,1842.2
528.987,1842.25
529.071,1843.65
529.155,1842.4
529.239,1841.85
529.324,1841.65
529.408,1841.4
529.492,1841.0
529.576,1841.5
529.66,1841.85
529.745,1842.5
529.829,1842.7
529.913,1842.05
529.997,1841.45
530.081,1842.0
530.165,1841.2
530.25,1841.95
530.334,1842.4
530.418,1841.25
530.502,1842.7
530.586,1843.1
530.67,1841.7
530.754,1842.35
530.839,1842.9
530.923,1842.85
531.007,1842.0
531.091,1842.95
531.175,1841.75
531.259,1843.85
531.344,1843.0
531.428,1844.95
531.512,1844.05
531.596,1850.75
531.68,1861.6
531.764,1913.65
531.848,2115.7
531.933,2543.3
532.017,2875.45
532.101,2812.35
532.185,2682.45
532.269,2277.15
532.353,1931.45
532.437,1850.7
532.521,1843.8
532.606,1843.55
532.69,1842.4
532.774,1842.2
532.858,1842.75
532.942,1843.1
533.026,1843.35
533.11,1842.35
533.194,1841.9
533.279,1842.6
533.363,1842.1
533.447,1843.5
533.531,1848.6
533.615,1860.6
533.699,1882.1
533.783,1912.55
533.867,1941.55
533.951,1964.25
534.036,1972.5
534.12,1982.75
534.204,1975.4
534.288,1976.5
534.372,1973.0
534.456,1969.45
534.54,1978.65
534.624,1985.35
534.708,1991.15
534.792,1996.3
534.877,2011.8
534.961,2020.0
535.045,2022.35
535.129,2009.05
535.213,2005.5
535.297,1992.6
535.381,1976.1
535.465,1965.15
535.549,1962.6
535.633,1951.35
535.717,1943.35
535.801,1942.2
535.886,1936.9
535.97,1930.5
536.054,1927.05
536.138,1923.3
536.222,1929.85
536.306,1926.55
536.39,1927.35
536.474,1931.4
536.558,1938.8
536.642,1938.8
536.726,1949.85
536.81,1961.8
536.894,1968.2
536.978,1971.55
537.062,1970.85
537.146,1969.8
537.231,1961.0
537.315,1959.2
537.399,1949.25
537.483,1944.05
537.567,1939.05
537.651,1937.5
537.735,1936.35
537.819,1930.2
537.903,1929.6
537.987,1931.0
538.071,1930.75
538.155,1932.55
538.239,1927.6
538.323,1930.4
538.407,1939.5
538.491,1944.7
538.575,1946.75
538.659,1953.4
538.743,1959.65
538.827,1960.75
538.911,1975.25
538.995,1978.95
539.079,1986.05
539.163,1991.35
539.247,1988.95
539.331,1979.8
539.415,1968.6
539.499,1964.4
539.583,1955.55
539.667,1945.85
539.751,1936.5
539.835,1934.05
539.919,1924.85
540.003,1926.3
540.087,1925.0
540.171,1924.7
540.255,1924.15
540.339,1920.15
540.423,1914.95
540.507,1915.95
540.591,1922.65
540.675,1922.85
540.759,1921.9
540.843,1925.6
540.927,1923.15
541.011,1926.85
541.095,1932.6
541.179,1932.85
541.263,1946.25
541.347,1945.45
541.431,1945.25
541.515,1931.4
541.599,1926.5
541.683,1927.95
541.767,1927.65
541.851,1926.25
541.935,1926.6
542.019,1923.0
542.103,1921.5
542.187,1920.2
542.271,1920.6
542.355,1920.85
542.439,1923.75
542.523,1926.65
542.607,1930.0
542.691,1932.65
542.775,1934.6
542.859,1933.6
542.943,1936.65
543.027,1937.5
543.111,1942.45
543.195,1945.5
543.279,1954.05
543.363,1978.7
543.446,2013.25
543.53,2044.3
543.614,2066.65
543.698,2059.0
543.782,2032.6
543.866,2004.9
543.95,1975.05
544.034,1956.05
544.118,1951.1
544.202,1943.65
544.286,1939.45
544.37,1936.05
544.454,1930.15
544.538,1929.5
544.622,1930.4
544.706,1934.35
544.789,1934.35
544.873,1937.9
544.957,1942.35
545.041,1953.2
545.125,1960.7
545.209,1975.35
545.293,1978.65
545.377,1972.6
545.461,1967.2
545.545,1960.35
545.629,1952.5
545.713,1938.9
545.796,1930.8
545.88,1928.3
545.964,1925.25
546.048,1927.15
546.132,1922.75
546.216,1923.8
546.3,1920.65
546.384,1918.7
546.468,1920.6
546.552,1921.35
546.635,1921.85
546.719,1925.95
546.803,1926.05
546.887,1927.05
546.971,1927.15
547.055,1931.55
547.139,1937.1
547.223,1948.0
547.306,1950.6
547.39,1955.35
547.474,1951.15
547.558,1961.6
547.642,1957.65
547.726,1949.0
547.81,1943.15
547.894,1932.9
547.977,1930.45
548.061,1928.85
548.145,1924.8
548.229,1923.4
548.313,1923.85
548.397,1920.9
548.481,1925.2
548.564,1925.85
548.648,1919.8
548.732,1920.65
548.816,1919.45
548.9,1919.65
548.984,1918.2
549.068,1918.15
549.151,1919.45
549.235,1919.1
549.319,1912.3
549.403,1921.3
549.487,1916.95
549.571,1920.85
549.655,1917.35
549.738,1919.3
549.822,1919.8
549.906,1919.45
549.99,1918.75
550.074,1916.65
550.158,1917.1
550.241,1921.9
550.325,1924.1
550.409,1921.75
550.493,1919.15
550.577,1921.95
550.66,1924.1
550.744,1921.85
550.828,1928.35
550.912,1927.25
550.996,1925.0
551.08,1926.85
551.163,1932.55
551.247,1927.6
551.331,1925.35
551.415,1928.15
551.499,1930.25
551.582,1928.6
551.666,1931.8
551.75,1932.15
551.834,1931.3
551.918,1926.55
552.001,1926.1
552.085,1926.5
552.169,1928.85
552.253,1925.05
552.337,1927.15
552.42,1922.95
552.504,1924.5
552.588,1924.65
552.672,1919.65
552.755,1920.45
552.839,1920.05
552.923,1916.95
553.007,1921.35
553.091,1922.35
553.174,1924.8
553.258,1921.25
553.342,1917.5
553.426,1913.1
553.509,1919.65
553.593,1920.05
553.677,1920.9
553.761,1921.3
553.844,1921.45
553.928,1919.1
554.012,1921.55
554.096,1919.85
554.179,1928.1
554.263,1925.2
554.347,1925.1
554.431,1923.3
554.514,1922.9
554.598,1928.15
554.682,1929.45
554.766,1932.15
554.849,1931.2
554.933,1932.15
555.017,1933.45
555.101,1935.15
555.184,1935.8
555.268,1936.25
555.352,1944.05
555.436,1949.6
555.519,1957.25
555.603,1965.1
555.687,1993.75
555.771,2039.75
555.854,2110.45
555.938,2203.45
556.022,2278.85
556.105,2303.7
556.189,2249.85
556.273,2140.4
556.357,2048.55
556.44,2019.75
556.524,2006.4
556.608,2008.95
556.691,2024.25
556.775,2032.8
556.859,2070.45
556.943,2092.1
557.026,2114.1
557.11,2114.55
557.194,2082.35
557.277,2039.6
557.361,2005.95
557.445,1978.1
557.528,1971.2
557.612,1965.75
557.696,1956.75
557.779,1956.9
557.863,1947.3
557.947,1949.55
558.031,1945.7
558.114,1943.4
558.198,1941.75
558.282,1941.3
558.365,1936.35
558.449,1940.7
558.533,1939.25
558.616,1942.3
558.7,1948.15
558.784,1949.45
558.867,1956.25
558.951,1955.5
559.035,1955.2
559.118,1942.65
559.202,1940.1
559.286,1937.95
559.369,1940.2
559.453,1940.0
559.537,1935.65
559.62,1934.65
559.704,1939.65
559.788,1946.5
559.871,1948.4
559.955,1958.85
560.038,1974.45
560.122,1982.5
560.206,1986.6
560.289,1984.45
560.373,1970.5
560.457,1957.2
560.54,1958.75
560.624,1955.85
560.708,1962.0
560.791,1979.4
560.875,2002.65
560.958,2037.3
561.042,2084.8
561.126,2117.9
561.209,2140.6
561.293,2132.35
561.377,2068.55
561.46,2015.4
561.544,1982.55
561.627,1966.5
561.711,1968.55
561.795,1980.9
561.878,1990.1
561.962,2002.2
562.045,2006.75
562.129,1996.9
562.213,1972.3
562.296,1966.7
562.38,1955.85
562.463,1957.4
562.547,1958.35
562.631,1961.4
562.714,1960.05
562.798,1965.15
562.881,1970.8
562.965,1982.6
563.049,2001.85
563.132,2011.6
563.216,2017.55
563.299,2010.95
563.383,2007.35
563.467,1993.65
563.55,1979.4
563.634,1972.35
563.717,1964.25
563.801,1954.3
563.884,1949.95
563.968,1947.35
564.052,1952.8
564.135,1952.05
564.219,1950.95
564.302,1948.95
564.386,1941.0
564.469,1938.2
564.553,1945.75
564.636,1942.15
564.72,1942.35
564.804,1945.85
564.887,1948.15
564.971,1944.95
565.054,1953.65
565.138,1956.25
565.221,1956.0
565.305,1963.5
565.388,1961.55
565.472,1958.85
565.556,1953.9
565.639,1946.5
565.723,1949.3
565.806,1944.1
565.89,1940.5
565.973,1943.05
566.057,1951.5
566.14,1944.7
566.224,1955.45
566.307,1960.4
566.391,1970.5
566.474,1981.1
566.558,2006.2
566.641,2033.2
566.725,2066.65
566.808,2104.2
566.892,2127.9
566.975,2140.5
567.059,2144.7
567.142,2159.0
567.226,2176.5
567.309,2192.25
567.393,2195.95
567.476,2177.0
567.56,2133.5
567.643,2069.3
567.727,2013.65
567.81,1989.35
567.894,1971.7
567.977,1966.15
568.061,1958.95
568.144,1957.9
568.228,1957.75
568.311,1957.9
568.395,1955.35
568.478,1966.75
568.562,1974.6
568.645,1980.65
568.729,1992.85
568.812,1995.3
568.896,2013.5
568.979,2033.15
569.063,2039.35
569.146,2031.7
569.23,2025.35
569.313,2003.25
569.396,1992.95
569.48,1983.4
569.563,1971.65
569.647,1962.65
569.73,1970.1
569.814,1967.95
569.897,1976.5
569.981,1980.7
570.064,1989.7
570.148,2002.0
570.231,2011.45
570.314,2007.75
570.398,1998.45
570.481,1985.2
570.565,1975.85
570.648,1969.45
570.732,1968.15
570.815,1969.95
570.898,1970.85
570.982,1975.4
571.065,1969.55
571.149,1974.8
571.232,1976.65
571.316,1986.05
571.399,1997.2
571.482,2000.25
571.566,2014.25
571.649,2017.1
571.733,2023.15
571.816,2028.5
571.9,2022.55
571.983,2024.2
572.066,2017.95
572.15,2016.4
572.233,2043.25
572.317,2069.0
572.4,2106.6
572.483,2145.05
572.567,2180.75
572.65,2211.1
572.734,2215.55
572.817,2171.95
572.9,2103.0
572.984,2064.05
573.067,2032.75
573.15,2021.25
573.234,2025.75
573.317,2024.85
573.401,2030.8
573.484,2063.85
573.567,2079.45
573.651,2092.5
573.734,2079.0
573.818,2055.9
573.901,2037.4
573.984,2012.7
574.068,2011.35
574.151,2005.4
574.234,1999.0
574.318,1987.9
574.401,1972.55
574.484,1965.95
574.568,1960.4
574.651,1957.65
574.734,1953.2
574.818,1949.8
574.901,1948.2
574.985,1944.5
575.068,1947.35
575.151,1946.6
575.235,1949.8
575.318,1946.6
575.401,1939.8
575.485,1949.35
575.568,1949.25
575.651,1953.2
575.735,1963.0
575.818,1970.25
575.901,1994.8
575.985,2022.8
576.068,2053.0
576.151,2084.5
576.235,2102.15
576.318,2092.55
576.401,2083.6
576.484,2102.85
576.568,2132.2
576.651,2185.6
576.734,2232.35
576.818,2280.45
576.901,2332.9
576.984,2331.6
577.068,2277.65
577.151,2212.4
577.234,2140.85
577.318,2074.6
577.401,2027.85
577.484,1995.25
577.567,1974.05
577.651,1967.1
577.734,1963.45
577.817,1952.8
577.901,1948.45
577.984,1944.65
578.067,1942.2
578.15,1946.25
578.234,1937.25
578.317,1939.9
578.4,1936.85
578.484,1936.35
578.567,1940.15
578.65,1934.0
578.733,1937.65
578.817,1937.35
578.9,1936.65
578.983,1936.1
579.066,1936.3
579.15,1934.35
579.233,1935.65
579.316,1930.05
579.399,1929.1
579.483,1931.9
579.566,1932.2
579.649,1935.55
579.732,1932.0
579.816,1930.2
579.899,1932.4
579.982,1932.65
580.065,1937.0
580.149,1934.7
580.232,1930.2
580.315,1938.65
580.398,1932.25
580.482,1932.85
580.565,1934.75
580.648,1934.65
580.731,1930.6
580.815,1931.9
580.898,1934.05
580.981,1934.15
581.064,1930.55
581.147,1931.05
581.231,1932.65
581.314,1934.85
581.397,1933.25
581.48,1932.25
581.563,1930.55
581.647,1929.25
581.73,1933.05
581.813,1940.95
581.896,1932.5
581.979,1931.6
582.063,1931.3
582.146,1931.0
582.229,1936.6
582.312,1931.45
582.395,1932.35
582.479,1934.0
582.562,1936.35
582.645,1932.5
582.728,1927.7
582.811,1933.6
582.895,1933.5
582.978,1935.75
583.061,1935.5
583.144,1932.5
583.227,1933.0
583.31,1932.5
583.394,1934.2
583.477,1933.25
583.56,1933.15
583.643,1930.65
583.726,1933.65
583.809,1936.3
583.893,1935.5
583.976,1935.4
584.059,1934.4
584.142,1930.9
584.225,1931.75
584.308,1935.3
584.391,1935.4
584.475,1934.55
584.558,1932.55
584.641,1931.8
584.724,1934.05
584.807,1934.95
584.89,1936.15
584.973,1939.45
585.057,1932.7
585.14,1935.1
585.223,1938.6
585.306,1937.1
585.389,1932.4
585.472,1930.9
585.555,1931.8
585.638,1932.35
585.722,1929.7
585.805,1932.85
585.888,1930.0
585.971,1933.85
586.054,1928.2
586.137,1931.75
586.22,1930.6
586.303,1933.6
586.386,1928.1
586.47,1929.9
586.553,1933.9
586.636,1930.85
586.719,1924.55
586.802,1929.5
586.885,1930.2
586.968,1930.0
587.051,1926.55
587.134,1926.3
587.217,1928.3
587.3,1930.95
587.384,1928.9
587.467,1929.7
587.55,1925.15
587.633,1928.5
587.716,1927.2
587.799,1926.35
587.882,1934.05
587.965,1930.85
588.048,1926.3
588.131,1926.05
588.214,1930.25
588.297,1929.95
588.38,1929.5
588.463,1924.5
588.546,1927.65
588.63,1929.1
588.713,1920.45
588.796,1919.35
588.879,1919.95
588.962,1920.9
589.045,1921.65
589.128,1921.1
589.211,1922.85
589.294,1925.85
589.377,1923.05
589.46,1921.85
589.543,1918.7
589.626,1923.75
589.709,1919.65
589.792,1923.75
589.875,1924.0
589.958,1925.9
590.041,1927.15
590.124,1926.6
590.207,1923.25
590.29,1925.05
590.373,1927.9
590.456,1925.15
590.539,1925.75
590.622,1928.9
590.705,1929.3
590.788,1928.75
590.871,1932.2
590.954,1927.45
591.037,1923.85
591.12,1924.9
591.203,1926.05
591.286,1930.0
591.369,1928.6
591.452,1926.55
591.535,1925.0
591.618,1930.85
591.701,1928.55
591.784,1929.35
591.867,1926.55
591.95,1927.95
592.033,1927.15
592.116,1924.5
592.199,1925.8
592.282,1928.0
592.365,1932.2
592.448,1927.9
592.531,1924.85
592.614,1929.3
592.697,1930.15
592.78,1932.25
592.863,1924.95
592.946,1930.95
593.029,1928.05
593.112,1928.05
593.195,1926.2
593.278,1932.1
593.361,1931.2
593.443,1930.25
593.526,1929.6
593.609,1927.25
593.692,1931.5
593.775,1929.45
593.858,1928.3
593.941,1928.2
594.024,1926.7
594.107,1923.3
594.19,1924.6
594.273,1926.05
594.356,1924.0
594.439,1925.6
594.522,1927.9
594.604,1925.4
594.687,1931.05
594.77,1927.1
594.853,1929.65
594.936,1928.25
595.019,1929.4
595.102,1927.35
595.185,1929.4
595.268,1930.7
595.351,1925.65
595.434,1931.5
595.516,1931.0
595.599,1929.9
595.682,1929.35
595.765,1929.3
595.848,1927.6
595.931,1930.35
596.014,1927.4
596.097,1932.85
596.18,1930.9
596.262,1930.15
596.345,1935.35
596.428,1933.35
596.511,1930.9
596.594,1931.65
596.677,1929.0
596.76,1932.15
596.843,1936.05
596.925,1930.3
597.008,1928.75
597.091,1926.8
597.174,1925.95
597.257,1929.35
597.34,1930.9
597.423,1934.1
597.505,1933.9
597.588,1927.9
597.671,1931.85
597.754,1932.55
597.837,1928.7
597.92,1933.2
598.002,1928.15
598.085,1928.25
598.168,1925.2
598.251,1928.95
598.334,1927.3
598.417,1928.05
598.499,1927.7
598.582,1932.55
598.665,1928.85
598.748,1932.15
598.831,1932.3
598.914,1931.85
598.996,1930.2
599.079,1930.45
599.162,1928.85
599.245,1930.0
599.328,1928.6
599.41,1936.45
599.493,1928.85
599.576,1930.6
599.659,1935.45
599.742,1932.05
599.824,1929.2
599.907,1935.2
599.99,1930.35
600.073,1933.55
600.156,1934.25
600.238,1931.4
600.321,1934.95
600.404,1928.05
600.487,1929.45
600.57,1931.2
600.652,1934.6
600.735,1936.2
600.818,1927.0
600.901,1928.85
600.983,1930.45
601.066,1929.85
601.149,1929.25
601.232,1931.2
601.314,1931.0
601.397,1929.1
601.48,1926.0
601.563,1927.65
601.645,1924.6
601.728,1925.75
601.811,1934.35
601.894,1926.7
601.976,1933.65
602.059,1935.5
602.142,1932.0
602.225,1930.05
602.307,1930.5
602.39,1929.0
602.473,1931.9
602.556,1933.65
602.638,1931.1
602.721,1927.75
602.804,1930.2
602.887,1930.3
602.969,1931.95
603.052,1931.85
603.135,1934.1
603.217,1932.65
603.3,1935.05
603.383,1934.15
603.466,1934.6
603.548,1929.8
603.631,1932.75
603.714,1929.6
603.796,1929.1
603.879,1934.7
603.962,1931.95
604.045,1936.9
604.127,1938.25
604.21,1933.1
604.293,1933.15
604.375,1932.3
604.458,1934.4
604.541,1936.65
604.623,1932.05
604.706,1936.7
604.789,1932.9
604.871,1937.05
604.954,1934.5
605.037,1932.95
605.119,1931.7
605.202,1931.8
605.285,1929.25
605.367,1932.5
605.45,1934.7
605.533,1934.05
605.615,1935.65
605.698,1936.25
605.781,1938.3
605.863,1933.15
605.946,1930.55
606.029,1932.0
606.111,1935.9
606.194,1936.25
606.277,1933.9
606.359,1939.5
606.442,1934.65
606.524,1935.55
606.607,1939.1
606.69,1933.7
606.772,1936.75
606.855,1932.75
606.938,1931.9
607.02,1937.35
607.103,1939.75
607.185,1938.95
607.268,1936.4
607.351,1937.6
607.433,1935.1
607.516,1939.8
607.599,1933.4
607.681,1933.9
607.764,1933.1
607.846,1933.9
607.929,1936.75
608.012,1934.4
608.094,1933.25
608.177,1932.2
608.259,1932.15
608.342,1934.05
608.425,1934.35
608.507,1931.45
608.59,1929.35
608.672,1930.6
608.755,1930.6
608.837,1933.65
608.92,1927.2
609.003,1928.95
609.085,1930.35
609.168,1927.2
609.25,1929.8
609.333,1933.45
609.415,1930.1
609.498,1932.65
609.581,1936.65
609.663,1935.45
609.746,1932.0
609.828,1933.0
609.911,1934.45
609.993,1933.1
610.076,1931.8
610.158,1936.15
610.241,1930.85
610.324,1932.7
610.406,1930.55
610.489,1928.3
610.571,1929.7
610.654,1933.65
610.736,1935.5
610.819,1935.85
610.901,1936.1
610.984,1932.55
611.066,1930.65
611.149,1933.95
611.231,1932.8
611.314,1936.05
611.396,1931.3
611.479,1933.15
611.561,1931.65
611.644,1931.8
611.727,1932.2
611.809,1935.75
611.892,1935.2
611.974,1931.85
612.057,1931.3
612.139,1931.4
612.222,1934.25
612.304,1930.3
612.386,1930.95
612.469,1927.55
612.551,1929.95
612.634,1931.75
612.716,1927.65
612.799,1929.7
612.881,1938.45
612.964,1929.7
613.046,1931.05
613.129,1927.25
613.211,1924.55
613.294,1934.35
613.376,1933.0
613.459,1927.6
613.541,1923.95
613.624,1927.5
613.706,1927.5
613.789,1929.1
613.871,1930.1
613.953,1930.8
614.036,1933.75
614.118,1926.3
614.201,1933.3
614.283,1931.05
614.366,1932.6
614.448,1930.9
614.531,1930.7
614.613,1937.1
614.695,1926.95
614.778,1933.45
614.86,1929.25
614.943,1932.55
615.025,1934.45
615.108,1933.25
615.19,1938.1
615.272,1930.75
615.355,1935.2
615.437,1932.05
615.52,1936.0
615.602,1929.6
615.684,1936.25
615.767,1934.6
615.849,1936.7
615.932,1935.3
616.014,1933.95
616.097,1932.55
616.179,1934.75
616.261,1930.8
616.344,1934.15
616.426,1932.4
616.508,1932.15
616.591,1932.95
616.673,1938.15
616.756,1941.85
616.838,1938.85
616.92,1943.45
617.003,1940.2
617.085,1938.0
617.168,1932.65
617.25,1942.85
617.332,1938.2
617.415,1937.7
617.497,1941.2
617.579,1946.1
617.662,1948.1
617.744,1941.4
617.826,1937.25
617.909,1943.75
617.991,1941.85
618.073,1946.6
618.156,1938.75
618.238,1941.5
618.32,1943.7
618.403,1943.75
618.485,1944.6
618.567,1941.6
618.65,1941.7
618.732,1941.65
618.814,1941.8
618.897,1942.05
618.979,1944.55
619.061,1947.3
619.144,1957.15
619.226,1954.65
619.308,1959.4
619.391,1962.3
619.473,1961.0
619.555,1961.65
619.638,1971.8
619.72,1971.45
619.802,1970.7
619.885,1972.5
619.967,1967.95
620.049,1963.35
620.131,1958.25
620.214,1960.2
620.296,1962.2
620.378,1956.75
620.461,1962.35
620.543,1963.3
620.625,1968.6
620.707,1967.6
620.79,1970.25
620.872,1967.0
620.954,1965.7
621.037,1970.9
621.119,1971.15
621.201,1961.7
621.283,1970.7
621.366,1979.3
621.448,1981.9
621.53,1997.95
621.612,2005.5
621.695,2016.85
621.777,2020.8
621.859,2026.65
621.941,2039.25
622.024,2039.35
622.106,2068.3
622.188,2089.25
622.27,2107.85
622.353,2102.45
622.435,2087.65
622.517,2074.15
622.599,2058.4
622.682,2043.95
622.764,2031.5
622.846,2013.5
622.928,2015.55
623.01,2005.05
623.093,2001.0
623.175,1995.85
623.257,1988.6
623.339,1982.4
623.422,1984.25
623.504,1978.15
623.586,1972.15
623.668,1966.9
623.75,1968.1
623.833,1959.7
623.915,1954.25
623.997,1952.5
624.079,1960.45
624.161,1955.75
624.244,1950.7
624.326,1953.8
624.408,1947.75
624.49,1949.35
624.572,1957.75
624.654,1956.75
624.737,1961.65
624.819,1960.1
624.901,1958.5
624.983,1955.45
625.065,1957.8
625.147,1960.65
625.23,1966.3
625.312,1965.05
625.394,1968.3
625.476,1971.9
625.558,1979.2
625.64,1985.3
625.723,1988.85
625.805,1994.6
625.887,2007.75
625.969,2013.9
626.051,2023.4
626.133,2032.75
626.215,2057.7
626.298,2106.9
626.38,2154.4
626.462,2233.85
626.544,2335.2
626.626,2478.95
626.708,2623.3
626.79,2743.4
626.872,2808.8
626.955,2816.25
627.037,2743.65
627.119,2636.0
627.201,2527.9
627.283,2446.4
627.365,2387.75
627.447,2378.75
627.529,2421.5
627.611,2509.3
627.693,2659.75
627.776,2845.65
627.858,3037.7
627.94,3264.8
628.022,3417.8
628.104,3470.05
628.186,3488.25
628.268,3534.65
628.35,3621.25
628.432,3791.6
628.514,3891.85
628.596,3951.65
628.678,3930.35
628.761,3840.6
628.843,3750.35
628.925,3656.8
629.007,3486.2
629.089,3452.25
629.171,3419.45
629.253,3432.75
629.335,3470.45
629.417,3456.3
629.499,3431.5
629.581,3387.35
629.663,3290.65
629.745,3206.85
629.827,3119.6
629.909,3114.4
629.991,3098.25
630.073,3081.2
630.155,3071.5
630.237,3059.3
630.319,3025.15
630.401,2951.4
630.483,2882.9
630.565,2759.6
630.647,2644.8
630.73,2565.2
630.812,2534.35
630.894,2532.45
630.976,2579.45
631.058,2648.85
631.14,2773.05
631.222,2899.6
631.304,3066.5
631.386,3188.75
631.468,3240.85
631.55,3266.7
631.632,3281.45
631.714,3307.1
631.796,3263.65
631.877,3177.35
631.959,2995.45
632.041,2835.15
632.123,2679.3
632.205,2552.25
632.287,2427.85
632.369,2321.55
632.451,2262.65
632.533,2184.5
632.615,2135.55
632.697,2097.05
632.779,2072.8
632.861,2051.8
632.943,2041.55
633.025,2031.9
633.107,2019.8
633.189,2011.8
633.271,2002.95
633.353,1995.45
633.435,1989.4
633.517,1976.75
633.599,1976.35
633.681,1973.5
633.763,1965.0
633.844,1959.15
633.926,1962.95
634.008,1962.3
634.09,1954.15
634.172,1952.6
634.254,1952.55
634.336,1946.4
634.418,1944.3
634.5,1945.6
634.582,1939.2
634.664,1936.7
634.746,1936.25
634.827,1935.7
634.909,1940.05
634.991,1935.65
635.073,1935.95
635.155,1937.65
635.237,1938.35
635.319,1935.95
635.401,1930.95
635.483,1933.6
635.564,1932.65
635.646,1932.3
635.728,1931.0
635.81,1932.55
635.892,1926.05
635.974,1926.75
636.056,1922.0
636.138,1927.4
636.219,1929.6
636.301,1927.05
636.383,1926.45
636.465,1925.25
636.547,1924.5
636.629,1924.3
636.711,1931.85
636.792,1925.5
636.874,1925.2
636.956,1923.7
637.038,1925.9
637.12,1926.95
637.202,1924.35
637.283,1922.5
637.365,1922.7
637.447,1922.65
637.529,1922.95
637.611,1924.35
637.693,1922.45
637.774,1923.6
637.856,1927.45
637.938,1923.7
638.02,1925.3
638.102,1924.3
638.184,1920.95
638.265,1922.45
638.347,1925.7
638.429,1925.1
638.511,1926.1
638.593,1928.0
638.674,1928.2
638.756,1925.05
638.838,1925.25
638.92,1926.15
639.002,1930.0
639.083,1930.1
639.165,1929.1
639.247,1929.0
639.329,1927.85
639.41,1927.0
639.492,1925.85
639.574,1928.5
639.656,1923.45
639.737,1924.35
639.819,1927.5
639.901,1926.85
639.983,1925.35
640.065,1930.8
640.146,1923.35
640.228,1923.45
640.31,1921.3
640.392,1925.45
640.473,1928.0
640.555,1929.55
640.637,1926.65
640.719,1924.85
640.8,1927.0
640.882,1923.4
640.964,1923.7
641.045,1921.95
641.127,1922.0
641.209,1923.3
641.291,1926.0
641.372,1922.85
641.454,1927.05
641.536,1927.1
641.618,1924.35
641.699,1924.55
641.781,1927.2
641.863,1923.9
641.944,1918.6
642.026,1919.65
642.108,1917.0
642.189,1921.05
642.271,1922.9
642.353,1916.5
642.435,1918.1
642.516,1916.95
642.598,1918.65
642.68,1922.15
642.761,1913.05
642.843,1910.5
642.925,1912.75
643.006,1912.1
643.088,1910.55
643.17,1909.7
643.251,1916.35
643.333,1908.55
643.415,1906.95
643.496,1910.5
643.578,1910.25
643.66,1914.4
643.741,1910.25
643.823,1911.65
643.905,1911.1
643.986,1908.75
644.068,1907.75
644.149,1911.3
644.231,1913.6
644.313,1910.25
644.394,1910.9
644.476,1909.55
644.558,1906.0
644.639,1908.2
644.721,1908.75
644.803,1906.7
644.884,1909.4
644.966,1906.35
645.047,1908.6
645.129,1907.75
645.211,1906.4
645.292,1911.1
645.374,1908.9
645.455,1909.25
645.537,1911.25
645.619,1906.7
645.7,1905.4
645.782,1907.9
645.863,1905.75
645.945,1906.4
646.027,1906.95
646.108,1907.5
646.19,1908.95
646.271,1903.35
646.353,1904.5
646.435,1904.2
646.516,1905.4
646.598,1903.85
646.679,1905.4
646.761,1905.7
646.842,1902.75
646.924,1902.8
647.005,1903.9
647.087,1898.8
647.169,1904.2
647.25,1904.05
647.332,1903.55
647.413,1904.25
647.495,1903.65
647.576,1902.55
647.658,1902.25
647.739,1902.4
647.821,1905.15
647.902,1904.65
647.984,1903.95
648.066,1904.6
648.147,1902.7
648.229,1903.05
648.31,1899.95
648.392,1896.5
648.473,1901.6
648.555,1903.75
648.636,1904.25
648.718,1899.15
648.799,1901.5
648.881,1903.9
648.962,1904.4
649.044,1905.6
649.125,1901.05
649.207,1900.25
649.288,1897.45
649.37,1901.75
649.451,1897.65
649.533,1897.7
649.614,1894.35
649.696,1897.65
649.777,1896.9
649.859,1895.95
649.94,1898.3
650.022,1899.6
650.103,1895.9
650.184,1898.6
650.266,1898.55
650.347,1898.9
650.429,1900.15
650.51,1903.5
650.592,1900.1
650.673,1899.95
650.755,1904.1
650.836,1895.0
650.918,1895.6
650.999,1895.15
651.08,1900.2
651.162,1901.8
651.243,1898.85
651.325,1891.9
651.406,1898.2
651.488,1893.0
651.569,1893.95
651.651,1896.55
651.732,1895.95
651.813,1897.55
651.895,1896.65
651.976,1902.3
652.058,1895.8
652.139,1897.65
652.22,1896.35
652.302,1895.45
652.383,1895.35
652.465,1896.7
652.546,1896.55
652.627,1898.3
652.709,1897.8
652.79,1896.9
652.872,1892.05
652.953,1893.7
653.034,1895.15
653.116,1894.5
653.197,1891.8
653.278,1893.9
653.36,1892.45
653.441,1895.8
653.523,1890.6
653.604,1896.15
653.685,1893.35
653.767,1894.75
653.848,1895.65
653.929,1899.2
654.011,1892.7
654.092,1892.75
654.173,1891.7
654.255,1891.0
654.336,1895.4
654.418,1891.5
654.499,1892.8
654.58,1892.05
654.662,1890.75
654.743,1889.25
654.824,1890.05
654.906,1887.25
654.987,1894.8
655.068,1891.85
655.149,1891.75
655.231,1894.75
655.312,1892.95
655.393,1890.8
655.475,1888.6
655.556,1891.15
655.637,1890.4
655.719,1894.15
655.8,1893.1
655.881,1892.15
655.963,1889.15
656.044,1888.4
656.125,1885.25
656.206,1887.95
656.288,1884.25
656.369,1884.95
656.45,1882.6
656.532,1887.2
656.613,1887.65
656.694,1889.45
656.775,1888.55
656.857,1887.9
656.938,1890.6
657.019,1890.4
657.1,1888.6
657.182,1889.4
657.263,1889.15
657.344,1889.8
657.425,1888.75
657.507,1892.4
657.588,1887.25
657.669,1886.1
657.75,1890.65
657.832,1888.4
657.913,1889.05
657.994,1888.6
658.075,1889.6
658.157,1888.95
658.238,1889.95
658.319,1887.5
658.4,1887.75
658.482,1886.75
658.563,1887.45
658.644,1886.65
658.725,1889.35
658.806,1889.3
658.888,1884.4
658.969,1886.7
659.05,1889.85
659.131,1885.8
659.212,1885.05
659.294,1883.85
659.375,1882.1
659.456,1887.65
659.537,1886.15
659.618,1884.75
659.7,1883.95
659.781,1889.25
659.862,1887.0
659.943,1886.85
660.024,1886.25
660.105,1882.9
660.187,1887.15
660.268,1884.3
660.349,1885.75
660.43,1886.9
660.511,1886.8
660.592,1883.45
660.674,1883.35
660.755,1886.6
660.836,1886.9
660.917,1881.15
660.998,1885.75
661.079,1884.25
