nm,Intensity
526.486,830.4
526.622,830.2
526.759,829.1
526.896,828.7
527.033,829.4
527.169,830.1
527.306,829.9
527.443,829.9
527.579,828.9
527.716,829.3
527.853,831.4
527.989,829.6
528.126,829.5
528.263,830.5
528.399,830.2
528.536,829.7
528.672,829.1
528.809,829.9
528.946,829.5
529.082,829.9
529.219,830.9
529.355,830.1
529.492,831.1
529.628,830.1
529.765,830.5
529.901,830.1
530.038,830.4
530.174,829.4
530.311,829.9
530.447,829.6
530.584,828.3
530.72,830.3
530.857,828.5
530.993,828.7
531.13,830.0
531.266,830.6
531.403,830.0
531.539,829.1
531.676,829.3
531.812,830.1
531.948,834.3
532.085,888.1
532.221,933.9
532.358,863.6
532.494,832.0
532.63,829.9
532.767,829.3
532.903,828.7
533.039,829.3
533.176,829.2
533.312,830.0
533.448,828.3
533.585,829.3
533.721,833.2
533.857,844.8
533.993,864.2
534.13,874.6
534.266,868.2
534.402,868.5
534.539,870.0
534.675,874.1
534.811,881.7
534.947,887.7
535.083,894.2
535.22,897.2
535.356,890.3
535.492,872.5
535.628,863.4
535.764,855.8
535.901,850.0
536.037,846.7
536.173,846.3
536.309,846.6
536.445,845.6
536.581,848.0
536.717,850.4
536.854,854.5
536.99,859.0
537.126,867.9
537.262,864.4
537.398,858.7
537.534,851.8
537.67,849.7
537.806,845.5
537.942,844.2
538.078,844.9
538.214,842.4
538.35,843.1
538.486,842.6
538.622,843.8
538.758,841.8
538.894,841.5
539.03,846.3
539.166,845.3
539.302,848.4
539.438,848.9
539.574,845.9
539.71,846.0
539.846,842.9
539.982,842.6
540.118,841.0
540.254,840.6
540.39,839.7
540.526,839.2
540.662,838.9
540.798,839.9
540.933,840.3
541.069,842.9
541.205,845.8
541.341,848.1
541.477,848.0
541.613,844.7
541.749,844.3
541.884,842.5
542.02,840.3
542.156,839.8
542.292,839.6
542.428,838.9
542.563,840.5
542.699,838.5
542.835,840.7
542.971,842.8
543.106,840.8
543.242,843.6
543.378,848.7
543.514,860.7
543.649,886.7
543.785,891.5
543.921,869.4
544.057,852.7
544.192,849.9
544.328,845.3
544.464,840.5
544.599,843.1
544.735,842.2
544.871,843.7
545.006,843.4
545.142,846.3
545.278,851.7
545.413,853.4
545.549,855.1
545.684,848.7
545.82,843.4
545.956,840.7
546.091,838.8
546.227,839.0
546.362,840.5
546.498,840.4
546.634,839.1
546.769,840.0
546.905,839.0
547.04,840.0
547.176,841.6
547.311,844.3
547.447,850.3
547.582,850.8
547.718,848.8
547.853,848.1
547.989,841.6
548.124,838.5
548.26,841.5
548.395,837.8
548.531,837.2
548.666,837.8
548.802,837.4
548.937,837.6
549.072,836.4
549.208,836.6
549.343,836.6
549.479,837.0
549.614,835.4
549.75,834.7
549.885,834.9
550.02,835.7
550.156,836.7
550.291,833.1
550.426,835.5
550.562,834.7
550.697,835.4
550.832,836.0
550.968,836.8
551.103,835.2
551.238,836.0
551.374,834.9
551.509,835.3
551.644,836.7
551.78,835.2
551.915,835.2
552.05,834.3
552.185,835.6
552.321,834.2
552.456,836.2
552.591,833.8
552.726,834.2
552.862,834.8
552.997,835.9
553.132,836.2
553.267,836.0
553.403,835.4
553.538,834.9
553.673,835.1
553.808,835.4
553.943,836.5
554.078,836.7
554.214,836.6
554.349,836.9
554.484,835.5
554.619,837.6
554.754,836.7
554.889,837.6
555.024,839.3
555.16,836.9
555.295,838.1
555.43,839.6
555.565,842.8
555.7,846.3
555.835,856.6
555.97,879.3
556.105,920.2
556.24,908.1
556.375,871.8
556.51,859.1
556.645,859.4
556.78,863.4
556.915,878.0
557.05,903.7
557.185,926.7
557.32,880.7
557.455,860.2
557.59,850.0
557.725,847.6
557.86,846.2
557.995,844.3
558.13,843.4
558.265,841.8
558.4,841.7
558.535,843.3
558.67,844.7
558.805,847.1
558.94,854.4
559.075,850.5
559.21,843.2
559.345,840.8
559.479,838.5
559.614,841.3
559.749,839.9
559.884,842.9
560.019,842.4
560.154,850.3
560.289,854.3
560.424,847.6
560.558,844.2
560.693,844.1
560.828,843.2
560.963,848.3
561.098,861.2
561.232,875.9
561.367,868.9
561.502,853.1
561.637,847.0
561.772,849.0
561.906,858.5
562.041,869.8
562.176,865.8
562.311,852.4
562.445,847.7
562.58,844.7
562.715,845.1
562.85,849.0
562.984,847.7
563.119,855.9
563.254,865.1
563.388,864.2
563.523,861.7
563.658,852.3
563.792,846.3
563.927,842.7
564.062,842.5
564.196,843.1
564.331,844.1
564.466,843.7
564.6,845.4
564.735,845.5
564.87,848.0
565.004,846.9
565.139,849.8
565.273,854.0
565.408,851.7
565.543,851.4
565.677,848.4
565.812,848.1
565.946,846.3
566.081,845.9
566.215,845.8
566.35,846.6
566.485,849.2
566.619,853.6
566.754,871.2
566.888,902.0
567.023,903.9
567.157,887.2
567.292,878.6
567.426,880.3
567.561,872.9
567.695,858.6
567.83,847.8
567.964,842.7
568.099,844.1
568.233,845.1
568.368,844.3
568.502,844.7
568.636,846.2
568.771,847.7
568.905,854.3
569.04,864.9
569.174,870.7
569.309,860.6
569.443,848.5
569.577,847.6
569.712,844.3
569.846,843.0
569.98,844.8
570.115,848.5
570.249,849.8
570.384,850.1
570.518,845.0
570.652,844.4
570.787,844.4
570.921,844.2
571.055,846.5
571.19,847.6
571.324,846.9
571.458,850.1
571.592,851.5
571.727,854.4
571.861,853.7
571.995,847.8
572.13,850.8
572.264,855.2
572.398,864.3
572.532,884.7
572.667,915.4
572.801,924.1
572.935,887.0
573.069,867.0
573.204,858.6
573.338,856.4
573.472,858.1
573.606,872.7
573.74,881.5
573.875,868.7
574.009,860.9
574.143,856.3
574.277,857.7
574.411,851.4
574.545,847.9
574.68,846.4
574.814,842.4
574.948,844.6
575.082,841.9
575.216,840.3
575.35,843.2
575.484,841.5
575.619,844.1
575.753,842.0
575.887,845.6
576.021,853.6
576.155,875.7
576.289,880.8
576.423,876.9
576.557,873.7
576.691,895.1
576.825,919.8
576.959,946.1
577.093,947.5
577.227,909.1
577.361,874.0
577.495,858.6
577.629,848.3
577.763,846.6
577.897,844.8
578.031,841.9
578.165,841.9
578.299,841.4
578.433,842.6
578.567,839.9
578.701,840.9
578.835,840.7
578.969,840.9
579.103,839.2
579.237,839.3
579.371,839.0
579.505,838.5
579.639,839.2
579.773,840.1
579.907,839.0
580.041,838.7
580.175,840.0
580.309,837.7
580.442,838.1
580.576,839.0
580.71,837.8
580.844,838.6
580.978,839.3
581.112,837.4
581.246,836.9
581.38,838.9
581.513,837.1
581.647,838.6
581.781,838.5
581.915,839.7
582.049,838.8
582.183,839.3
582.316,839.1
582.45,838.1
582.584,837.7
582.718,838.5
582.852,837.8
582.985,838.3
583.119,837.0
583.253,837.1
583.387,838.4
583.52,839.2
583.654,840.4
583.788,837.8
583.922,839.4
584.055,840.3
584.189,839.3
584.323,839.2
584.456,839.7
584.59,838.9
584.724,840.5
584.858,838.5
584.991,839.0
585.125,839.9
585.259,836.5
585.392,840.2
585.526,838.6
585.66,839.7
585.793,838.0
585.927,840.9
586.061,837.3
586.194,838.2
586.328,839.3
586.462,835.8
586.595,836.7
586.729,837.4
586.862,838.2
586.996,837.7
587.13,837.2
587.263,837.7
587.397,837.9
587.53,837.8
587.664,838.2
587.797,839.4
587.931,837.3
588.065,837.7
588.198,836.8
588.332,838.6
588.465,835.9
588.599,837.8
588.732,837.3
588.866,836.6
588.999,837.0
589.133,837.6
589.266,838.0
589.4,836.9
589.533,837.2
589.667,837.7
589.8,837.1
589.934,837.0
590.067,836.6
590.201,839.0
590.334,838.6
590.468,837.1
590.601,838.1
590.735,836.9
590.868,837.7
591.001,838.2
591.135,837.9
591.268,838.0
591.402,836.7
591.535,837.8
591.669,836.1
591.802,837.8
591.935,837.7
592.069,839.9
592.202,838.7
592.335,836.6
592.469,839.3
592.602,837.1
592.736,837.1
592.869,835.8
593.002,837.7
593.136,838.0
593.269,838.2
593.402,836.8
593.536,837.8
593.669,838.0
593.802,839.2
593.936,838.2
594.069,837.6
594.202,835.6
594.336,838.0
594.469,836.7
594.602,837.1
594.735,836.8
594.869,839.3
595.002,837.9
595.135,838.3
595.268,837.3
595.402,835.8
595.535,837.4
595.668,837.7
595.801,836.1
595.935,838.1
596.068,838.4
596.201,837.4
596.334,837.7
596.468,837.0
596.601,839.0
596.734,838.8
596.867,837.0
597.0,838.1
597.133,839.6
597.267,838.0
597.4,837.7
597.533,837.3
597.666,839.1
597.799,837.1
597.932,837.0
598.066,836.8
598.199,837.2
598.332,837.6
598.465,838.1
598.598,838.7
598.731,837.3
598.864,838.0
598.998,838.3
599.131,838.7
599.264,838.4
599.397,838.9
599.53,838.7
599.663,838.0
599.796,838.0
599.929,837.6
600.062,838.5
600.195,838.2
600.328,838.9
600.461,836.8
600.594,839.1
600.727,836.2
600.86,837.4
600.994,837.8
601.127,838.8
601.26,838.2
601.393,837.0
601.526,836.9
601.659,838.6
601.792,838.6
601.925,836.9
602.058,837.3
602.191,837.5
602.324,838.2
602.457,836.8
602.589,837.4
602.722,837.5
602.855,837.8
602.988,835.2
603.121,837.9
603.254,838.9
603.387,838.2
603.52,837.7
603.653,838.8
603.786,841.1
603.919,838.2
604.052,837.3
604.185,839.9
604.318,838.7
604.451,840.1
604.583,839.4
604.716,839.4
604.849,838.5
604.982,840.2
605.115,838.2
605.248,838.8
605.381,839.9
605.514,839.2
605.646,839.6
605.779,840.7
605.912,838.5
606.045,837.8
606.178,839.3
606.311,838.6
606.443,840.1
606.576,838.7
606.709,840.4
606.842,837.0
606.975,840.0
607.107,838.5
607.24,839.3
607.373,840.1
607.506,839.0
607.639,840.0
607.771,839.7
607.904,839.4
608.037,838.1
608.17,839.9
608.302,838.0
608.435,838.2
608.568,837.8
608.701,836.7
608.833,838.6
608.966,839.3
609.099,840.0
609.232,838.9
609.364,838.2
609.497,837.7
609.63,840.2
609.762,840.3
609.895,837.5
610.028,839.0
610.161,839.6
610.293,839.5
610.426,837.9
610.559,839.5
610.691,839.3
610.824,840.3
610.957,839.4
611.089,839.6
611.222,839.2
611.355,840.5
611.487,838.9
611.62,840.4
611.752,839.0
611.885,837.4
612.018,840.0
612.15,840.1
612.283,840.0
612.416,839.5
612.548,838.9
612.681,839.4
612.813,837.0
612.946,840.4
613.078,839.6
613.211,838.5
613.344,837.4
613.476,838.6
613.609,839.5
613.741,838.6
613.874,838.8
614.006,839.4
614.139,840.2
614.272,838.4
614.404,839.8
614.537,841.4
614.669,839.8
614.802,839.0
614.934,840.8
615.067,839.0
615.199,840.3
615.332,840.6
615.464,840.9
615.597,840.0
615.729,842.4
615.862,840.3
615.994,838.1
616.127,840.7
616.259,841.2
616.392,840.1
616.524,843.3
616.657,842.4
616.789,843.2
616.922,842.2
617.054,842.3
617.186,840.9
617.319,844.3
617.451,843.9
617.584,843.1
617.716,843.0
617.849,841.5
617.981,844.0
618.113,842.5
618.246,845.6
618.378,841.9
618.511,844.2
618.643,843.6
618.775,843.5
618.908,843.9
619.04,844.1
619.173,845.7
619.305,845.4
619.437,846.8
619.57,849.2
619.702,850.2
619.834,850.8
619.967,850.9
620.099,849.9
620.231,849.6
620.364,847.6
620.496,847.7
620.628,849.2
620.761,846.3
620.893,848.6
621.025,845.8
621.158,847.5
621.29,848.1
621.422,851.2
621.555,852.3
621.687,856.1
621.819,857.9
621.952,861.1
622.084,866.3
622.216,872.2
622.348,874.3
622.481,877.8
622.613,868.9
622.745,863.4
622.878,864.4
623.01,859.0
623.142,855.3
623.274,854.2
623.407,853.3
623.539,853.8
623.671,852.4
623.803,852.2
623.935,850.5
624.068,846.7
624.2,846.8
624.332,845.1
624.464,845.6
624.597,846.7
624.729,848.3
624.861,847.9
624.993,848.8
625.125,848.2
625.258,849.2
625.39,851.5
625.522,850.8
625.654,854.5
625.786,854.8
625.918,856.1
626.051,860.6
626.183,861.8
626.315,869.8
626.447,881.8
626.579,906.6
626.711,952.4
626.844,1024.4
626.976,1064.0
627.108,1041.9
627.24,989.9
627.372,949.3
627.504,927.0
627.636,935.5
627.768,982.9
627.901,1076.8
628.033,1153.3
628.165,1171.9
628.297,1177.0
628.429,1218.0
628.561,1275.0
628.693,1328.8
628.825,1300.6
628.957,1248.0
629.089,1204.1
629.221,1180.6
629.354,1194.1
629.486,1210.9
629.618,1198.0
629.75,1138.3
629.882,1102.9
630.014,1090.2
630.146,1088.2
630.278,1096.3
630.41,1090.8
630.542,1068.2
630.674,1017.2
630.806,978.7
630.938,962.5
631.07,973.9
631.202,1009.4
631.334,1072.6
631.466,1096.0
631.598,1081.0
631.73,1064.7
631.862,1043.5
631.994,1017.9
632.126,976.5
632.258,940.4
632.39,910.6
632.522,892.4
632.654,880.3
632.786,870.3
632.918,865.1
633.05,861.0
633.182,856.7
633.314,855.4
633.446,852.4
633.578,850.2
633.71,849.6
633.842,849.4
633.974,846.4
634.106,846.5
634.237,845.9
634.369,844.7
634.501,844.5
634.633,844.5
634.765,844.2
634.897,842.8
635.029,840.5
635.161,843.1
635.293,842.4
635.425,840.8
635.557,840.7
635.689,842.8
635.82,842.6
635.952,842.7
636.084,843.4
636.216,842.1
636.348,842.1
636.48,841.0
636.612,840.3
636.744,840.0
636.875,839.6
637.007,839.7
637.139,842.1
637.271,840.1
637.403,840.8
637.535,841.3
637.667,840.9
637.798,839.9
637.93,839.8
638.062,840.9
638.194,840.1
638.326,840.5
638.458,839.0
638.589,842.1
638.721,839.1
638.853,840.9
638.985,841.7
639.117,841.3
639.248,839.8
639.38,841.7
639.512,839.2
639.644,841.2
639.776,841.4
639.907,839.4
640.039,839.8
640.171,841.3
640.303,840.4
640.435,842.3
640.566,841.6
640.698,840.5
640.83,840.8
640.962,841.9
641.093,842.1
641.225,841.2
641.357,840.0
641.489,840.5
641.62,841.7
641.752,840.0
641.884,841.1
642.016,842.1
642.147,840.5
642.279,842.0
642.411,838.9
642.543,839.5
642.674,840.3
642.806,840.1
642.938,837.2
643.069,838.7
643.201,840.2
643.333,839.7
643.465,838.3
643.596,838.5
643.728,840.3
643.86,837.8
643.991,839.2
644.123,837.9
644.255,838.6
644.386,838.0
644.518,838.1
644.65,840.8
644.781,838.9
644.913,839.5
645.045,837.4
645.176,839.7
645.308,839.1
645.44,838.2
645.571,837.7
645.703,838.4
645.835,839.5
645.966,838.0
646.098,837.4
646.23,836.5
646.361,838.3
646.493,837.9
646.625,837.4
646.756,836.9
646.888,838.0
647.019,838.9
647.151,837.7
647.283,838.7
647.414,838.3
647.546,838.2
647.678,838.4
647.809,837.9
647.941,839.1
648.072,838.1
648.204,838.0
648.336,841.1
648.467,838.6
648.599,840.6
648.73,838.2
648.862,836.7
648.993,839.3
649.125,836.7
649.257,837.0
649.388,838.5
649.52,837.9
649.651,838.8
649.783,837.6
649.914,837.2
650.046,837.3
650.178,838.7
650.309,839.0
650.441,837.3
650.572,838.8
650.704,837.8
650.835,837.6
650.967,836.0
651.098,836.5
651.23,835.5
651.361,838.1
651.493,835.9
651.625,837.0
651.756,837.2
651.888,838.3
652.019,839.0
652.151,836.5
652.282,837.2
652.414,835.7
652.545,839.6
652.677,836.9
652.808,837.8
652.94,835.9
653.071,836.6
653.203,835.5
653.334,835.6
653.466,835.8
653.597,836.8
653.729,837.2
653.86,837.0
653.992,837.3
654.123,836.6
654.255,835.8
654.386,837.1
654.518,836.2
654.649,838.0
654.78,836.4
654.912,838.1
655.043,835.8
655.175,836.0
655.306,835.1
655.438,835.8
655.569,837.3
655.701,836.2
655.832,836.8
655.964,836.5
656.095,835.2
656.226,835.4
656.358,836.7
656.489,836.6
656.621,837.5
656.752,836.8
656.884,835.2
657.015,836.8
657.146,835.1
657.278,835.8
657.409,837.2
657.541,837.2
657.672,836.7
657.804,837.1
657.935,836.0
658.066,837.3
658.198,837.3
658.329,835.8
658.461,835.6
658.592,836.3
658.723,836.3
658.855,837.6
658.986,836.8
659.118,836.4
659.249,835.7
659.38,836.4
659.512,835.1
659.643,835.7
659.774,835.4
659.906,835.7
660.037,835.0
660.169,834.3
660.3,836.0
660.431,835.2
660.563,836.1
660.694,835.1
660.825,836.0
660.957,836.1
661.088,836.4
661.22,835.2
661.351,836.6
661.482,836.5
661.614,836.0
661.745,835.8
661.876,835.1
662.008,835.7
662.139,835.5
662.27,834.5
662.402,835.4
662.533,834.4
662.664,835.2
662.796,833.8
662.927,834.7
663.058,835.4
